Frequency[MHz];Amplitude RX1[mV] at pwm=100
 45.000;988
 45.063;1149
 45.125;1064
 45.188;1035
 45.250;1032
 45.313;1035
 45.375;1022
 45.438;1035
 45.500;1032
 45.563;1035
 45.625;1035
 45.688;1042
 45.750;1052
 45.813;1042
 45.875;1052
 45.938;1047
 46.000;1049
 46.063;1049
 46.125;1047
 46.188;1059
 46.250;1044
 46.313;1049
 46.375;1047
 46.438;1042
 46.500;1052
 46.563;1054
 46.625;1057
 46.688;1044
 46.750;1044
 46.813;1042
 46.875;1035
 46.938;1044
 47.000;1049
 47.063;1052
 47.125;1042
 47.188;1047
 47.250;1042
 47.313;1037
 47.375;1040
 47.438;1035
 47.500;1044
 47.563;1049
 47.625;1049
 47.688;1035
 47.750;1052
 47.813;1047
 47.875;1037
 47.938;1057
 48.000;1049
 48.063;1049
 48.125;1047
 48.188;1037
 48.250;1042
 48.313;1040
 48.375;1049
 48.438;1044
 48.500;1042
 48.563;1044
 48.625;1040
 48.688;1047
 48.750;1037
 48.813;1044
 48.875;1040
 48.938;1040
 49.000;1047
 49.063;1047
 49.125;1044
 49.188;1044
 49.250;1049
 49.313;1047
 49.375;1047
 49.438;1035
 49.500;1040
 49.563;1047
 49.625;1047
 49.688;1044
 49.750;1052
 49.813;1049
 49.875;1049
 49.938;1064
 50.000;1052
 50.063;1044
 50.125;1049
 50.188;1042
 50.250;1042
 50.313;1054
 50.375;1052
 50.438;1037
 50.500;1054
 50.563;1049
 50.625;1049
 50.688;1052
 50.750;1054
 50.813;1042
 50.875;1062
 50.938;1047
 51.000;1049
 51.063;1047
 51.125;1057
 51.188;1057
 51.250;1062
 51.313;1052
 51.375;1047
 51.438;1052
 51.500;1054
 51.563;1054
 51.625;1054
 51.688;1064
 51.750;1059
 51.813;1049
 51.875;1049
 51.938;1052
 52.000;1049
 52.063;1057
 52.125;1062
 52.188;1054
 52.250;1054
 52.313;1052
 52.375;1054
 52.438;1049
 52.500;1066
 52.563;1074
 52.625;1064
 52.688;1057
 52.750;1059
 52.813;1052
 52.875;1052
 52.938;1069
 53.000;1057
 53.063;1059
 53.125;1069
 53.188;1054
 53.250;1049
 53.313;1057
 53.375;1052
 53.438;1054
 53.500;1059
 53.563;1081
 53.625;1069
 53.688;1096
 53.750;1198
 53.813;1369
 53.875;1601
 53.938;1909
 54.000;2019
 54.063;2087
 54.125;2058
 54.188;1999
 54.250;1953
 54.313;1757
 54.375;1520
 54.438;1247
 54.500;1069
 54.563;1044
 54.625;1040
 54.688;1037
 54.750;1044
 54.813;1044
 54.875;1052
 54.938;1047
 55.000;1044
 55.063;1032
 55.125;1035
 55.188;1057
 55.250;1145
 55.313;1188
 55.375;1208
 55.438;1159
 55.500;1140
 55.563;1091
 55.625;1044
 55.688;1040
 55.750;1047
 55.813;1049
 55.875;1037
 55.938;1037
 56.000;1047
 56.063;1049
 56.125;1049
 56.188;1054
 56.250;1052
 56.313;1052
 56.375;1052
 56.438;1054
 56.500;1052
 56.563;1049
 56.625;1052
 56.688;1062
 56.750;1076
 56.813;1064
 56.875;1054
 56.938;1054
 57.000;1052
 57.063;1054
 57.125;1062
 57.188;1064
 57.250;1064
 57.313;1076
 57.375;1069
 57.438;1062
 57.500;1059
 57.563;1059
 57.625;1057
 57.688;1064
 57.750;1059
 57.813;1049
 57.875;1054
 57.938;1054
 58.000;1052
 58.063;1052
 58.125;1062
 58.188;1071
 58.250;1064
 58.313;1062
 58.375;1052
 58.438;1049
 58.500;1049
 58.563;1052
 58.625;1054
 58.688;1057
 58.750;1047
 58.813;1044
 58.875;1059
 58.938;1044
 59.000;1057
 59.063;1069
 59.125;1054
 59.188;1049
 59.250;1049
 59.313;1047
 59.375;1066
 59.438;1152
 59.500;1359
 59.563;1545
 59.625;1582
 59.688;1650
 59.750;1660
 59.813;1604
 59.875;1469
 59.938;1174
 60.000;1074
 60.063;1054
 60.125;1057
 60.188;1037
 60.250;1042
 60.313;1054
 60.375;1040
 60.438;1044
 60.500;1049
 60.563;1044
 60.625;1044
 60.688;1042
 60.750;1037
 60.813;1044
 60.875;1040
 60.938;1030
 61.000;1042
 61.063;1042
 61.125;1037
 61.188;1042
 61.250;1049
 61.313;1047
 61.375;1049
 61.438;1047
 61.500;1052
 61.563;1044
 61.625;1044
 61.688;1047
 61.750;1054
 61.813;1054
 61.875;1059
 61.938;1047
 62.000;1052
 62.063;1049
 62.125;1044
 62.188;1059
 62.250;1057
 62.313;1054
 62.375;1062
 62.438;1057
 62.500;1066
 62.563;1047
 62.625;1059
 62.688;1062
 62.750;1059
 62.813;1062
 62.875;1064
 62.938;1047
 63.000;1054
 63.063;1054
 63.125;1064
 63.188;1064
 63.250;1052
 63.313;1057
 63.375;1054
 63.438;1049
 63.500;1062
 63.563;1069
 63.625;1064
 63.688;1062
 63.750;1062
 63.813;1049
 63.875;1057
 63.938;1054
 64.000;1057
 64.063;1052
 64.125;1057
 64.188;1057
 64.250;1054
 64.313;1054
 64.375;1049
 64.438;1042
 64.500;1057
 64.563;1059
 64.625;1062
 64.688;1059
 64.750;1059
 64.813;1049
 64.875;1066
 64.938;1059
 65.000;1064
 65.063;1052
 65.125;1054
 65.188;1054
 65.250;1054
 65.313;1054
 65.375;1049
 65.438;1054
 65.500;1049
 65.563;1057
 65.625;1052
 65.688;1049
 65.750;1044
 65.813;1049
 65.875;1057
 65.938;1054
 66.000;1042
 66.063;1044
 66.125;1054
 66.188;1042
 66.250;1054
 66.313;1145
 66.375;1179
 66.438;1225
 66.500;1166
 66.563;1147
 66.625;1091
 66.688;1074
 66.750;1064
 66.813;1064
 66.875;1054
 66.938;1059
 67.000;1049
 67.063;1044
 67.125;1044
 67.188;1054
 67.250;1062
 67.313;1059
 67.375;1064
 67.438;1052
 67.500;1059
 67.563;1057
 67.625;1059
 67.688;1064
 67.750;1069
 67.813;1069
 67.875;1066
 67.938;1062
 68.000;1059
 68.063;1059
 68.125;1074
 68.188;1071
 68.250;1071
 68.313;1066
 68.375;1076
 68.438;1074
 68.500;1071
 68.563;1069
 68.625;1062
 68.688;1069
 68.750;1081
 68.813;1088
 68.875;1081
 68.938;1074
 69.000;1062
 69.063;1066
 69.125;1079
 69.188;1071
 69.250;1071
 69.313;1071
 69.375;1059
 69.438;1049
 69.500;1052
 69.563;1062
 69.625;1062
 69.688;1057
 69.750;1059
 69.813;1057
 69.875;1059
 69.938;1052
 70.000;1064
 70.063;1071
 70.125;1071
 70.188;1069
 70.250;1054
 70.313;1069
 70.375;1054
 70.438;1066
 70.500;1062
 70.563;1057
 70.625;1064
 70.688;1052
 70.750;1057
 70.813;1062
 70.875;1054
 70.938;1064
 71.000;1059
 71.063;1059
 71.125;1057
 71.188;1057
 71.250;1057
 71.313;1066
 71.375;1054
 71.438;1057
 71.500;1057
 71.563;1049
 71.625;1042
 71.688;1062
 71.750;1042
 71.813;1047
 71.875;1047
 71.938;1049
 72.000;1040
 72.063;1049
 72.125;1052
 72.188;1044
 72.250;1052
 72.313;1047
 72.375;1044
 72.438;1052
 72.500;1062
 72.563;1044
 72.625;1052
 72.688;1044
 72.750;1037
 72.813;1052
 72.875;1052
 72.938;1059
 73.000;1049
 73.063;1054
 73.125;1044
 73.188;1052
 73.250;1064
 73.313;1062
 73.375;1059
 73.438;1057
 73.500;1044
 73.563;1054
 73.625;1054
 73.688;1062
 73.750;1064
 73.813;1069
 73.875;1064
 73.938;1062
 74.000;1047
 74.063;1059
 74.125;1059
 74.188;1062
 74.250;1059
 74.313;1059
 74.375;1057
 74.438;1057
 74.500;1054
 74.563;1062
 74.625;1069
 74.688;1062
 74.750;1062
 74.813;1052
 74.875;1054
 74.938;1057
 75.000;1079
 75.063;1091
 75.125;1074
 75.188;1071
 75.250;1059
 75.313;1057
 75.375;1059
 75.438;1057
 75.500;1057
 75.563;1059
 75.625;1062
 75.688;1047
 75.750;1062
 75.813;1057
 75.875;1054
 75.938;1044
 76.000;1047
 76.063;1052
 76.125;1052
 76.188;1049
 76.250;1040
 76.313;1059
 76.375;1032
 76.438;1047
 76.500;1037
 76.563;1047
 76.625;1049
 76.688;1044
 76.750;1042
 76.813;1035
 76.875;1037
 76.938;1044
 77.000;1042
 77.063;1040
 77.125;1047
 77.188;1044
 77.250;1044
 77.313;1057
 77.375;1120
 77.438;1154
 77.500;1176
 77.563;1135
 77.625;1118
 77.688;1076
 77.750;1047
 77.813;1049
 77.875;1040
 77.938;1047
 78.000;1044
 78.063;1052
 78.125;1049
 78.188;1054
 78.250;1052
 78.313;1044
 78.375;1052
 78.438;1054
 78.500;1042
 78.563;1049
 78.625;1042
 78.688;1049
 78.750;1049
 78.813;1052
 78.875;1047
 78.938;1052
 79.000;1054
 79.063;1049
 79.125;1054
 79.188;1054
 79.250;1052
 79.313;1059
 79.375;1069
 79.438;1074
 79.500;1081
 79.563;1083
 79.625;1074
 79.688;1049
 79.750;1059
 79.813;1054
 79.875;1049
 79.938;1054
 80.000;1054
 80.063;1049
 80.125;1059
 80.188;1057
 80.250;1054
 80.313;1057
 80.375;1049
 80.438;1049
 80.500;1044
 80.563;1054
 80.625;1057
 80.688;1062
 80.750;1062
 80.813;1062
 80.875;1088
 80.938;1303
 81.000;1447
 81.063;1511
 81.125;1501
 81.188;1435
 81.250;1401
 81.313;1218
 81.375;1086
 81.438;1054
 81.500;1044
 81.563;1054
 81.625;1054
 81.688;1047
 81.750;1049
 81.813;1042
 81.875;1044
 81.938;1037
 82.000;1040
 82.063;1042
 82.125;1049
 82.188;1032
 82.250;1035
 82.313;1040
 82.375;1044
 82.438;1044
 82.500;1032
 82.563;1042
 82.625;1040
 82.688;1035
 82.750;1040
 82.813;1044
 82.875;1040
 82.938;1035
 83.000;1040
 83.063;1044
 83.125;1040
 83.188;1035
 83.250;1032
 83.313;1040
 83.375;1040
 83.438;1040
 83.500;1037
 83.563;1044
 83.625;1037
 83.688;1044
 83.750;1047
 83.813;1047
 83.875;1047
 83.938;1047
 84.000;1049
 84.063;1044
 84.125;1049
 84.188;1047
 84.250;1049
 84.313;1049
 84.375;1052
 84.438;1047
 84.500;1044
 84.563;1052
 84.625;1049
 84.688;1049
 84.750;1052
 84.813;1052
 84.875;1054
 84.938;1049
 85.000;1049
 85.063;1049
 85.125;1044
 85.188;1049
 85.250;1057
 85.313;1057
 85.375;1059
 85.438;1047
 85.500;1052
 85.563;1052
 85.625;1059
 85.688;1054
 85.750;1064
 85.813;1057
 85.875;1052
 85.938;1044
 86.000;1032
 86.063;1040
 86.125;1047
 86.188;1057
 86.250;1059
 86.313;1052
 86.375;1062
 86.438;1120
 86.500;1318
 86.563;1520
 86.625;1564
 86.688;1625
 86.750;1657
 86.813;1596
 86.875;1494
 86.938;1193
 87.000;1074
 87.063;1052
 87.125;1054
 87.188;1049
 87.250;1052
 87.313;1037
 87.375;1054
 87.438;1042
 87.500;1042
 87.563;1057
 87.625;1049
 87.688;1049
 87.750;1052
 87.813;1047
 87.875;1047
 87.938;1040
 88.000;1037
 88.063;1047
 88.125;1047
 88.188;1037
 88.250;1042
 88.313;1035
 88.375;1040
 88.438;1040
 88.500;1037
 88.563;1059
 88.625;1035
 88.688;1044
 88.750;1037
 88.813;1042
 88.875;1042
 88.938;1040
 89.000;1037
 89.063;1032
 89.125;1047
 89.188;1037
 89.250;1052
 89.313;1047
 89.375;1040
 89.438;1042
 89.500;1044
 89.563;1049
 89.625;1044
 89.688;1044
 89.750;1044
 89.813;1054
 89.875;1052
 89.938;1049
 90.000;1035
 90.063;1044
 90.125;1044
 90.188;1049
 90.250;1049
 90.313;1049
 90.375;1054
 90.438;1054
 90.500;1066
 90.563;1049
 90.625;1049
 90.688;1032
 90.750;1040
 90.813;1047
 90.875;1059
 90.938;1052
 91.000;1042
 91.063;1047
 91.125;1052
 91.188;1042
 91.250;1057
 91.313;1047
 91.375;1059
 91.438;1054
 91.500;1042
 91.563;1052
 91.625;1042
 91.688;1044
 91.750;1049
 91.813;1054
 91.875;1052
 91.938;1040
 92.000;1044
 92.063;1047
 92.125;1040
 92.188;1054
 92.250;1057
 92.313;1044
 92.375;1049
 92.438;1040
 92.500;1049
 92.563;1049
 92.625;1032
 92.688;1044
 92.750;1042
 92.813;1040
 92.875;1037
 92.938;1040
 93.000;1040
 93.063;1032
 93.125;1035
 93.188;1035
 93.250;1044
 93.313;1040
 93.375;1040
 93.438;1040
 93.500;1030
 93.563;1027
 93.625;1042
 93.688;1037
 93.750;1044
 93.813;1044
 93.875;1040
 93.938;1030
 94.000;1037
 94.063;1040
 94.125;1040
 94.188;1037
 94.250;1032
 94.313;1042
 94.375;1040
 94.438;1040
 94.500;1037
 94.563;1032
 94.625;1037
 94.688;1042
 94.750;1035
 94.813;1032
 94.875;1032
 94.938;1035
 95.000;1044
 95.063;1044
 95.125;1042
 95.188;1035
 95.250;1044
 95.313;1037
 95.375;1047
 95.438;1047
 95.500;1037
 95.563;1052
 95.625;1044
 95.688;1042
 95.750;1044
 95.813;1049
 95.875;1052
 95.938;1047
 96.000;1047
 96.063;1049
 96.125;1047
 96.188;1040
 96.250;1044
 96.313;1047
 96.375;1054
 96.438;1057
 96.500;1040
 96.563;1047
 96.625;1035
 96.688;1037
 96.750;1047
 96.813;1052
 96.875;1047
 96.938;1040
 97.000;1040
 97.063;1030
 97.125;1047
 97.188;1052
 97.250;1057
 97.313;1049
 97.375;1054
 97.438;1037
 97.500;1044
 97.563;1035
 97.625;1044
 97.688;1052
 97.750;1054
 97.813;1042
 97.875;1047
 97.938;1052
 98.000;1044
 98.063;1040
 98.125;1049
 98.188;1040
 98.250;1040
 98.313;1049
 98.375;1044
 98.438;1069
 98.500;1047
 98.563;1052
 98.625;1052
 98.688;1044
 98.750;1035
 98.813;1042
 98.875;1027
 98.938;1042
 99.000;1044
 99.063;1047
 99.125;1044
 99.188;1037
 99.250;1042
 99.313;1037
 99.375;1047
 99.438;1047
 99.500;1086
 99.563;1108
 99.625;1115
 99.688;1088
 99.750;1071
 99.813;1042
 99.875;1040
 99.938;1047
100.000;1059
100.063;1064
100.125;1054
100.188;1062
100.250;1054
100.313;1054
100.375;1054
100.438;1042
100.500;1044
100.563;1052
100.625;1047
100.688;1047
100.750;1049
100.813;1037
100.875;1047
100.938;1047
101.000;1057
101.063;1047
101.125;1049
101.188;1047
101.250;1042
101.313;1054
101.375;1054
101.438;1047
101.500;1066
101.563;1057
101.625;1074
101.688;1074
101.750;1069
101.813;1054
101.875;1054
101.938;1064
102.000;1069
102.063;1049
102.125;1049
102.188;1052
102.250;1047
102.313;1049
102.375;1049
102.438;1044
102.500;1044
102.563;1047
102.625;1049
102.688;1037
102.750;1037
102.813;1049
102.875;1047
102.938;1037
103.000;1037
103.063;1040
103.125;1044
103.188;1042
103.250;1042
103.313;1047
103.375;1049
103.438;1040
103.500;1040
103.563;1040
103.625;1025
103.688;1044
103.750;1035
103.813;1035
103.875;1035
103.938;1044
104.000;1032
104.063;1042
104.125;1044
104.188;1044
104.250;1044
104.313;1037
104.375;1040
104.438;1044
104.500;1044
104.563;1047
104.625;1044
104.688;1054
104.750;1064
104.813;1059
104.875;1054
104.938;1052
105.000;1047
105.063;1040
105.125;1042
105.188;1044
105.250;1044
105.313;1049
105.375;1047
105.438;1052
105.500;1054
105.563;1047
105.625;1044
105.688;1035
105.750;1044
105.813;1040
105.875;1042
105.938;1040
106.000;1047
106.063;1044
106.125;1052
106.188;1054
106.250;1040
106.313;1035
106.375;1047
106.438;1052
106.500;1049
106.563;1042
106.625;1049
106.688;1057
106.750;1057
106.813;1054
106.875;1054
106.938;1044
107.000;1049
107.063;1052
107.125;1047
107.188;1040
107.250;1030
107.313;1044
107.375;1044
107.438;1044
107.500;1040
107.563;1035
107.625;1040
107.688;1037
107.750;1037
107.813;1052
107.875;1076
107.938;1267
108.000;1442
108.063;1503
108.125;1511
108.188;1442
108.250;1413
108.313;1242
108.375;1091
108.438;1037
108.500;1037
108.563;1040
108.625;1037
108.688;1040
108.750;1037
108.813;1047
108.875;1047
108.938;1037
109.000;1027
109.063;1037
109.125;1032
109.188;1032
109.250;1040
109.313;1035
109.375;1035
109.438;1035
109.500;1044
109.563;1030
109.625;1040
109.688;1037
109.750;1030
109.813;1030
109.875;1040
109.938;1035
110.000;1032
110.063;1044
110.125;1037
110.188;1047
110.250;1037
110.313;1032
110.375;1042
110.438;1040
110.500;1047
110.563;1088
110.625;1110
110.688;1115
110.750;1086
110.813;1091
110.875;1052
110.938;1042
111.000;1040
111.063;1044
111.125;1047
111.188;1032
111.250;1035
111.313;1035
111.375;1035
111.438;1042
111.500;1042
111.563;1047
111.625;1044
111.688;1042
111.750;1044
111.813;1027
111.875;1035
111.938;1042
112.000;1037
112.063;1030
112.125;1035
112.188;1035
112.250;1042
112.313;1037
112.375;1032
112.438;1027
112.500;1042
112.563;1042
112.625;1044
112.688;1032
112.750;1044
112.813;1032
112.875;1042
112.938;1044
113.000;1037
113.063;1042
113.125;1042
113.188;1037
113.250;1032
113.313;1032
113.375;1044
113.438;1040
113.500;1054
113.563;1105
113.625;1145
113.688;1188
113.750;1220
113.813;1176
113.875;1115
113.938;1044
114.000;1040
114.063;1040
114.125;1035
114.188;1030
114.250;1035
114.313;1040
114.375;1030
114.438;1037
114.500;1032
114.563;1035
114.625;1032
114.688;1030
114.750;1035
114.813;1035
114.875;1025
114.938;1037
115.000;1040
115.063;1037
115.125;1025
115.188;1022
115.250;1032
115.313;1040
115.375;1035
115.438;1032
115.500;1037
115.563;1032
115.625;1037
115.688;1025
115.750;1032
115.813;1040
115.875;1020
115.938;1030
116.000;1032
116.063;1032
116.125;1032
116.188;1027
116.250;1035
116.313;1027
116.375;1040
116.438;1032
116.500;1035
116.563;1030
116.625;1030
116.688;1030
116.750;1022
116.813;1030
116.875;1020
116.938;1042
117.000;1032
117.063;1037
117.125;1030
117.188;1032
117.250;1037
117.313;1040
117.375;1035
117.438;1032
117.500;1030
117.563;1030
117.625;1032
117.688;1025
117.750;1035
117.813;1040
117.875;1030
117.938;1037
118.000;1042
118.063;1042
118.125;1032
118.188;1030
118.250;1030
118.313;1032
118.375;1037
118.438;1035
118.500;1032
118.563;1035
118.625;1032
118.688;1022
118.750;1027
118.813;1030
118.875;1032
118.938;1040
119.000;1032
119.063;1032
119.125;1035
119.188;1030
119.250;1032
119.313;1032
119.375;1037
119.438;1030
119.500;1027
119.563;1035
119.625;1032
119.688;1030
119.750;1037
119.813;1037
119.875;1037
119.938;1025
120.000;1035
120.063;1035
120.125;1030
120.188;1025
120.250;1030
120.313;1032
120.375;1027
120.438;1030
120.500;1025
120.563;1035
120.625;1035
120.688;1022
120.750;1035
120.813;1027
120.875;1025
120.938;1037
121.000;1035
121.063;1035
121.125;1032
121.188;1025
121.250;1025
121.313;1032
121.375;1018
121.438;1032
121.500;1027
121.563;1035
121.625;1057
121.688;1071
121.750;1071
121.813;1047
121.875;1044
121.938;1032
122.000;1032
122.063;1027
122.125;1025
122.188;1018
122.250;1027
122.313;1035
122.375;1030
122.438;1035
122.500;1025
122.563;1040
122.625;1035
122.688;1032
122.750;1025
122.813;1030
122.875;1027
122.938;1030
123.000;1035
123.063;1035
123.125;1027
123.188;1027
123.250;1030
123.313;1025
123.375;1035
123.438;1025
123.500;1027
123.563;1040
123.625;1044
123.688;1049
123.750;1062
123.813;1054
123.875;1047
123.938;1035
124.000;1030
124.063;1027
124.125;1032
124.188;1035
124.250;1035
124.313;1032
124.375;1027
124.438;1027
124.500;1025
124.563;1030
124.625;1037
124.688;1027
124.750;1032
124.813;1027
124.875;1032
124.938;1037
125.000;1052
125.063;1076
125.125;1054
125.188;1044
125.250;1044
125.313;1032
125.375;1032
125.438;1032
125.500;1032
125.563;1032
125.625;1027
125.688;1022
125.750;1037
125.813;1032
125.875;1022
125.938;1032
126.000;1032
126.063;1027
126.125;1035
126.188;1040
126.250;1030
126.313;1022
126.375;1032
126.438;1022
126.500;1020
126.563;1032
126.625;1027
126.688;1025
126.750;1030
126.813;1022
126.875;1025
126.938;1032
127.000;1025
127.063;1025
127.125;1027
127.188;1032
127.250;1035
127.313;1025
127.375;1022
127.438;1022
127.500;1032
127.563;1030
127.625;1022
127.688;1032
127.750;1030
127.813;1030
127.875;1032
127.938;1020
128.000;1027
128.063;1030
128.125;1030
128.188;1030
128.250;1030
128.313;1032
128.375;1032
128.438;1022
128.500;1020
128.563;1030
128.625;1027
128.688;1037
128.750;1037
128.813;1035
128.875;1032
128.938;1032
129.000;1035
129.063;1040
129.125;1037
129.188;1025
129.250;1030
129.313;1025
129.375;1037
129.438;1037
129.500;1032
129.563;1035
129.625;1032
129.688;1030
129.750;1022
129.813;1032
129.875;1025
129.938;1025
130.000;1030
130.063;1030
130.125;1030
130.188;1025
130.250;1032
130.313;1035
130.375;1022
130.438;1032
130.500;1037
130.563;1020
130.625;1030
130.688;1037
130.750;1020
130.813;1035
130.875;1032
130.938;1037
131.000;1030
131.063;1035
131.125;1027
131.188;1025
131.250;1027
131.313;1027
131.375;1022
131.438;1030
131.500;1032
131.563;1037
131.625;1022
131.688;1025
131.750;1027
131.813;1025
131.875;1030
131.938;1030
132.000;1022
132.063;1025
132.125;1030
132.188;1032
132.250;1022
132.313;1032
132.375;1032
132.438;1027
132.500;1032
132.563;1027
132.625;1054
132.688;1137
132.750;1188
132.813;1181
132.875;1120
132.938;1110
133.000;1044
133.063;1037
133.125;1035
133.188;1025
133.250;1027
133.313;1022
133.375;1025
133.438;1035
133.500;1037
133.563;1052
133.625;1037
133.688;1032
133.750;1025
133.813;1030
133.875;1032
133.938;1030
134.000;1030
134.063;1027
134.125;1027
134.188;1035
134.250;1025
134.313;1032
134.375;1027
134.438;1025
134.500;1027
134.563;1027
134.625;1037
134.688;1035
134.750;1027
134.813;1032
134.875;1030
134.938;1027
135.000;1088
135.063;1110
135.125;1123
135.188;1086
135.250;1074
135.313;1040
135.375;1037
135.438;1022
135.500;1030
135.563;1035
135.625;1035
135.688;1025
135.750;1020
135.813;1030
135.875;1025
135.938;1037
136.000;1025
136.063;1032
136.125;1030
136.188;1025
136.250;1032
136.313;1030
136.375;1030
136.438;1040
136.500;1042
136.563;1025
136.625;1027
136.688;1027
136.750;1027
136.813;1025
136.875;1025
136.938;1030
137.000;1020
137.063;1022
137.125;1022
137.188;1022
137.250;1018
137.313;1020
137.375;1027
137.438;1022
137.500;1030
137.563;1035
137.625;1020
137.688;1027
137.750;1030
137.813;1020
137.875;1020
137.938;1015
138.000;1027
138.063;1018
138.125;1018
138.188;1027
138.250;1020
138.313;1025
138.375;1032
138.438;1030
138.500;1030
138.563;1025
138.625;1025
138.688;1020
138.750;1032
138.813;1015
138.875;1025
138.938;1015
139.000;1025
139.063;1020
139.125;1030
139.188;1022
139.250;1030
139.313;1022
139.375;1027
139.438;1030
139.500;1027
139.563;1025
139.625;1022
139.688;1027
139.750;1030
139.813;1027
139.875;1015
139.938;1020
140.000;1027
140.063;1025
140.125;1030
140.188;1037
140.250;1027
140.313;1025
140.375;1025
140.438;1032
140.500;1018
140.563;1071
140.625;1101
140.688;1123
140.750;1169
140.813;1118
140.875;1098
140.938;1032
141.000;1027
141.063;1025
141.125;1020
141.188;1018
141.250;1030
141.313;1015
141.375;1022
141.438;1022
141.500;1022
141.563;1025
141.625;1015
141.688;1025
141.750;1030
141.813;1025
141.875;1025
141.938;1027
142.000;1022
142.063;1022
142.125;1030
142.188;1032
142.250;1022
142.313;1013
142.375;1025
142.438;1022
142.500;1022
142.563;1025
142.625;1027
142.688;1022
142.750;1022
142.813;1020
142.875;1022
142.938;1025
143.000;1030
143.063;1022
143.125;1025
143.188;1025
143.250;1018
143.313;1030
143.375;1020
143.438;1027
143.500;1030
143.563;1020
143.625;1027
143.688;1035
143.750;1044
143.813;1049
143.875;1047
143.938;1040
144.000;1035
144.063;1032
144.125;1015
144.188;1030
144.250;1022
144.313;1020
144.375;1022
144.438;1018
144.500;1020
144.563;1030
144.625;1027
144.688;1032
144.750;1020
144.813;1027
144.875;1022
144.938;1027
145.000;1025
145.063;1020
145.125;1025
145.188;1032
145.250;1032
145.313;1018
145.375;1015
145.438;1013
145.500;1022
145.563;1022
145.625;1020
145.688;1030
145.750;1037
145.813;1032
145.875;1049
145.938;1032
146.000;1035
146.063;1022
146.125;1022
146.188;1025
146.250;1035
146.313;1025
146.375;1027
146.438;1018
146.500;1025
146.563;1025
146.625;1025
146.688;1025
146.750;1025
146.813;1030
146.875;1027
146.938;1030
147.000;1020
147.063;1020
147.125;1022
147.188;1018
147.250;1027
147.313;1025
147.375;1030
147.438;1027
147.500;1020
147.563;1027
147.625;1027
147.688;1025
147.750;1025
147.813;1030
147.875;1020
147.938;1022
148.000;1018
148.063;1018
148.125;1010
148.188;1018
148.250;1015
148.313;1018
148.375;1020
148.438;1018
148.500;1020
148.563;1020
148.625;1015
148.688;1015
148.750;1015
148.813;1008
148.875;1010
148.938;1015
149.000;1015
149.063;1015
149.125;1015
149.188;1025
149.250;1018
149.313;1022
149.375;1025
149.438;1022
149.500;1020
149.563;1010
149.625;1010
149.688;1018
149.750;1018
149.813;1015
149.875;1018
149.938;1018
150.000;1022
150.063;1010
150.125;1013
150.188;1030
150.250;1025
150.313;1025
150.375;1010
150.438;1005
150.500;1022
150.563;1027
150.625;1018
150.688;1020
150.750;1020
150.813;1027
150.875;1027
150.938;1018
151.000;1022
151.063;1018
151.125;1018
151.188;1018
151.250;1018
151.313;1013
151.375;1013
151.438;1013
151.500;1022
151.563;1020
151.625;1027
151.688;1022
151.750;1020
151.813;1018
151.875;1022
151.938;1015
152.000;1027
152.063;1022
152.125;1020
152.188;1015
152.250;1018
152.313;1015
152.375;1022
152.438;1025
152.500;1020
152.563;1020
152.625;1018
152.688;1010
152.750;1018
152.813;1020
152.875;1018
152.938;1018
153.000;1018
153.063;1013
153.125;1018
153.188;1013
153.250;1018
153.313;1015
153.375;1020
153.438;1015
153.500;1025
153.563;1020
153.625;1022
153.688;1022
153.750;1020
153.813;1015
153.875;1027
153.938;1008
154.000;1018
154.063;1018
154.125;1015
154.188;1022
154.250;1013
154.313;1013
154.375;1018
154.438;1015
154.500;1005
154.563;1020
154.625;1018
154.688;1015
154.750;1091
154.813;1186
154.875;1252
154.938;1230
155.000;1176
155.063;1147
155.125;1044
155.188;1018
155.250;1018
155.313;1020
155.375;1025
155.438;1018
155.500;1022
155.563;1027
155.625;1022
155.688;1025
155.750;1027
155.813;1013
155.875;1015
155.938;1008
156.000;1015
156.063;1008
156.125;1015
156.188;1010
156.250;1022
156.313;1020
156.375;1010
156.438;1013
156.500;1013
156.563;1018
156.625;1022
156.688;1018
156.750;1020
156.813;1022
156.875;1022
156.938;1015
157.000;1010
157.063;1020
157.125;1018
157.188;1015
157.250;1013
157.313;1013
157.375;1020
157.438;1018
157.500;1013
157.563;1013
157.625;1018
157.688;1018
157.750;1020
157.813;1018
157.875;1015
157.938;1020
158.000;1020
158.063;1015
158.125;1005
158.188;1025
158.250;1018
158.313;1003
158.375;1010
158.438;1008
158.500;1013
158.563;1013
158.625;1010
158.688;1013
158.750;1008
158.813;1015
158.875;1010
158.938;1020
159.000;1020
159.063;1013
159.125;1008
159.188;1015
159.250;1018
159.313;1003
159.375;1018
159.438;1018
159.500;1015
159.563;1018
159.625;1008
159.688;1018
159.750;1015
159.813;1015
159.875;1015
159.938;1008
160.000;1013
160.063;1018
160.125;1015
160.188;1015
160.250;1010
160.313;1005
160.375;1018
160.438;1015
160.500;1018
160.563;1005
160.625;1013
160.688;1018
160.750;1015
160.813;1013
160.875;1010
160.938;1015
161.000;1015
161.063;1013
161.125;1018
161.188;1013
161.250;993
161.313;1015
161.375;1015
161.438;1010
161.500;1010
161.563;1005
161.625;1013
161.688;1015
161.750;1005
161.813;1010
161.875;1013
161.938;1010
162.000;1059
162.063;1091
162.125;1113
162.188;1071
162.250;1054
162.313;1020
162.375;1027
162.438;1015
162.500;1013
162.563;1013
162.625;1010
162.688;1015
162.750;1015
162.813;1010
162.875;1010
162.938;1013
163.000;1015
163.063;1010
163.125;1013
163.188;1015
163.250;1010
163.313;1003
163.375;1010
163.438;1013
163.500;1013
163.563;1008
163.625;1015
163.688;1013
163.750;1010
163.813;1015
163.875;1008
163.938;1005
164.000;1005
164.063;1003
164.125;1010
164.188;1010
164.250;998
164.313;1005
164.375;1013
164.438;1000
164.500;1013
164.563;1015
164.625;1010
164.688;1015
164.750;1015
164.813;993
164.875;1008
164.938;998
165.000;1010
165.063;1010
165.125;1015
165.188;1008
165.250;1013
165.313;1020
165.375;1015
165.438;1010
165.500;1010
165.563;1013
165.625;1013
165.688;1015
165.750;1010
165.813;1018
165.875;1018
165.938;1022
166.000;1025
166.063;1013
166.125;1013
166.188;1013
166.250;1013
166.313;1005
166.375;1008
166.438;1020
166.500;1015
166.563;1013
166.625;1013
166.688;1018
166.750;1020
166.813;1027
166.875;1015
166.938;1013
167.000;1010
167.063;1000
167.125;1018
167.188;1010
167.250;1000
167.313;1008
167.375;1010
167.438;1008
167.500;1003
167.563;1015
167.625;1013
167.688;1015
167.750;1025
167.813;1020
167.875;1027
167.938;1027
168.000;1032
168.063;1027
168.125;1015
168.188;1010
168.250;1013
168.313;1013
168.375;1008
168.438;1010
168.500;1003
168.563;1013
168.625;1005
168.688;1008
168.750;1005
168.813;1013
168.875;1008
168.938;1010
169.000;1010
169.063;1013
169.125;1000
169.188;1008
169.250;1015
169.313;1003
169.375;1003
169.438;1008
169.500;1003
169.563;1000
169.625;1005
169.688;1013
169.750;1013
169.813;1008
169.875;1005
169.938;1000
170.000;1008
170.063;1008
170.125;1005
170.188;1005
170.250;1008
170.313;1008
170.375;1018
170.438;1003
170.500;1010
170.563;1008
170.625;1005
170.688;1013
170.750;1003
170.813;1008
170.875;1008
170.938;998
171.000;1000
171.063;1008
171.125;976
171.188;988
171.250;983
171.313;979
171.375;988
171.438;983
171.500;983
171.563;993
171.625;991
171.688;988
171.750;998
171.813;988
171.875;986
171.938;996
172.000;996
172.063;996
172.125;991
172.188;991
172.250;986
172.313;986
172.375;991
172.438;991
172.500;986
172.563;988
172.625;981
172.688;983
172.750;988
172.813;988
172.875;991
172.938;976
173.000;983
173.063;983
173.125;991
173.188;991
173.250;983
173.313;983
173.375;988
173.438;988
173.500;983
173.563;988
173.625;986
173.688;983
173.750;983
173.813;981
173.875;988
173.938;998
174.000;986
174.063;988
174.125;1000
174.188;988
174.250;991
174.313;988
174.375;988
174.438;981
174.500;991
174.563;988
174.625;986
174.688;986
174.750;983
174.813;983
174.875;993
174.938;993
175.000;981
175.063;991
175.125;983
175.188;991
175.250;983
175.313;986
175.375;981
175.438;979
175.500;983
175.563;981
175.625;986
175.688;976
175.750;981
175.813;983
175.875;988
175.938;981
176.000;983
176.063;979
176.125;993
176.188;993
176.250;991
176.313;983
176.375;986
176.438;986
176.500;981
176.563;981
176.625;986
176.688;988
176.750;981
176.813;988
176.875;983
176.938;991
177.000;1003
177.063;991
177.125;986
177.188;986
177.250;988
177.313;1000
177.375;988
177.438;988
177.500;988
177.563;976
177.625;988
177.688;993
177.750;993
177.813;986
177.875;991
177.938;991
178.000;991
178.063;981
178.125;988
178.188;983
178.250;991
178.313;988
178.375;986
178.438;988
178.500;988
178.563;986
178.625;986
178.688;979
178.750;991
178.813;979
178.875;991
178.938;981
179.000;991
179.063;983
179.125;986
179.188;986
179.250;991
179.313;981
179.375;979
179.438;981
179.500;979
179.563;983
179.625;986
179.688;986
179.750;983
179.813;981
179.875;991
179.938;986
180.000;979
180.063;981
180.125;986
180.188;974
180.250;976
180.313;983
180.375;983
180.438;986
180.500;981
180.563;979
180.625;986
180.688;979
180.750;988
180.813;983
180.875;983
180.938;986
181.000;983
181.063;981
181.125;983
181.188;983
181.250;986
181.313;988
181.375;979
181.438;986
181.500;983
181.563;976
181.625;988
181.688;996
181.750;983
181.813;986
181.875;981
181.938;986
182.000;976
182.063;974
182.125;983
182.188;979
182.250;988
182.313;983
182.375;988
182.438;996
182.500;971
182.563;993
182.625;991
182.688;983
182.750;983
182.813;988
182.875;981
182.938;981
183.000;976
183.063;993
183.125;981
183.188;988
183.250;983
183.313;981
183.375;983
183.438;986
183.500;974
183.563;979
183.625;986
183.688;988
183.750;983
183.813;991
183.875;981
183.938;976
184.000;983
184.063;988
184.125;986
184.188;986
184.250;986
184.313;979
184.375;979
184.438;983
184.500;986
184.563;988
184.625;979
184.688;983
184.750;986
184.813;983
184.875;988
184.938;991
185.000;983
185.063;979
185.125;979
185.188;986
185.250;983
185.313;986
185.375;981
185.438;983
185.500;986
185.563;983
185.625;981
185.688;983
185.750;976
185.813;986
185.875;979
185.938;976
186.000;979
186.063;986
186.125;976
186.188;983
186.250;986
186.313;986
186.375;981
186.438;983
186.500;993
186.563;979
186.625;983
186.688;993
186.750;986
186.813;993
186.875;979
186.938;976
187.000;976
187.063;979
187.125;976
187.188;991
187.250;986
187.313;976
187.375;991
187.438;981
187.500;979
187.563;991
187.625;976
187.688;976
187.750;979
187.813;981
187.875;983
187.938;983
188.000;979
188.063;983
188.125;986
188.188;993
188.250;986
188.313;993
188.375;981
188.438;974
188.500;986
188.563;974
188.625;969
188.688;983
188.750;986
188.813;981
188.875;986
188.938;986
189.000;988
189.063;988
189.125;988
189.188;986
189.250;988
189.313;983
189.375;983
189.438;979
189.500;983
189.563;981
189.625;979
189.688;979
189.750;983
189.813;983
189.875;979
189.938;986
190.000;974
190.063;979
190.125;986
190.188;981
190.250;983
190.313;981
190.375;976
190.438;991
190.500;983
190.563;983
190.625;983
190.688;981
190.750;991
190.813;986
190.875;976
190.938;983
191.000;974
191.063;983
191.125;983
191.188;986
191.250;988
191.313;996
191.375;979
191.438;983
191.500;981
191.563;986
191.625;983
191.688;981
191.750;991
191.813;983
191.875;988
191.938;983
192.000;979
192.063;986
192.125;979
192.188;986
192.250;988
192.313;991
192.375;988
192.438;979
192.500;988
192.563;991
192.625;988
192.688;983
192.750;986
192.813;988
192.875;983
192.938;981
193.000;988
193.063;986
193.125;983
193.188;991
193.250;974
193.313;983
193.375;976
193.438;983
193.500;983
193.563;983
193.625;981
193.688;981
193.750;996
193.813;979
193.875;974
193.938;983
194.000;986
194.063;986
194.125;981
194.188;986
194.250;981
194.313;988
194.375;983
194.438;981
194.500;983
194.563;988
194.625;991
194.688;991
194.750;976
194.813;976
194.875;988
194.938;976
195.000;981
195.063;991
195.125;974
195.188;976
195.250;981
195.313;986
195.375;983
195.438;986
195.500;983
195.563;983
195.625;991
195.688;988
195.750;983
195.813;983
195.875;979
195.938;979
196.000;983
196.063;986
196.125;979
196.188;993
196.250;991
196.313;988
196.375;986
196.438;983
196.500;988
196.563;979
196.625;986
196.688;983
196.750;983
196.813;981
196.875;979
196.938;986
197.000;981
197.063;979
197.125;979
197.188;986
197.250;988
197.313;988
197.375;981
197.438;974
197.500;988
197.563;983
197.625;981
197.688;986
197.750;981
197.813;986
197.875;981
197.938;979
198.000;983
198.063;983
198.125;983
198.188;986
198.250;981
198.313;974
198.375;991
198.438;981
198.500;988
198.563;983
198.625;976
198.688;993
198.750;988
198.813;979
198.875;988
198.938;979
199.000;981
199.063;988
199.125;996
199.188;996
199.250;986
199.313;981
199.375;986
199.438;983
199.500;983
199.563;983
199.625;976
199.688;986
199.750;979
199.813;979
199.875;986
199.938;991
200.000;986
200.063;998
200.125;986
200.188;991
200.250;986
200.313;986
200.375;991
200.438;986
200.500;986
200.563;991
200.625;976
200.688;983
200.750;988
200.813;983
200.875;983
200.938;986
201.000;993
201.063;988
201.125;979
201.188;976
201.250;983
201.313;976
201.375;991
201.438;974
201.500;981
201.563;974
201.625;979
201.688;976
201.750;981
201.813;976
201.875;986
201.938;988
202.000;991
202.063;976
202.125;988
202.188;986
202.250;986
202.313;983
202.375;981
202.438;986
202.500;983
202.563;991
202.625;981
202.688;979
202.750;971
202.813;986
202.875;981
202.938;981
203.000;991
203.063;983
203.125;983
203.188;983
203.250;981
203.313;981
203.375;979
203.438;983
203.500;974
203.563;983
203.625;983
203.688;981
203.750;983
203.813;996
203.875;988
203.938;988
204.000;991
204.063;981
204.125;979
204.188;988
204.250;983
204.313;981
204.375;991
204.438;986
204.500;988
204.563;981
204.625;983
204.688;983
204.750;979
204.813;981
204.875;986
204.938;983
205.000;979
205.063;988
205.125;986
205.188;981
205.250;983
205.313;979
205.375;971
205.438;971
205.500;983
205.563;976
205.625;981
205.688;983
205.750;986
205.813;979
205.875;986
205.938;976
206.000;976
206.063;981
206.125;983
206.188;986
206.250;983
206.313;983
206.375;988
206.438;986
206.500;976
206.563;986
206.625;983
206.688;983
206.750;988
206.813;976
206.875;981
206.938;981
207.000;983
207.063;983
207.125;983
207.188;983
207.250;981
207.313;986
207.375;974
207.438;986
207.500;981
207.563;986
207.625;988
207.688;979
207.750;991
207.813;979
207.875;979
207.938;986
208.000;988
208.063;976
208.125;981
208.188;976
208.250;976
208.313;979
208.375;981
208.438;981
208.500;974
208.563;981
208.625;976
208.688;974
208.750;976
208.813;976
208.875;983
208.938;981
209.000;983
209.063;981
209.125;983
209.188;988
209.250;974
209.313;983
209.375;976
209.438;979
209.500;979
209.563;981
209.625;981
209.688;976
209.750;983
209.813;976
209.875;986
209.938;986
210.000;979
210.063;979
210.125;986
210.188;986
210.250;986
210.313;981
210.375;981
210.438;986
210.500;981
210.563;979
210.625;981
210.688;979
210.750;981
210.813;979
210.875;976
210.938;981
211.000;981
211.063;976
211.125;981
211.188;983
211.250;991
211.313;988
211.375;988
211.438;981
211.500;983
211.563;991
211.625;976
211.688;981
211.750;981
211.813;986
211.875;979
211.938;974
212.000;981
212.063;983
212.125;988
212.188;979
212.250;986
212.313;979
212.375;979
212.438;983
212.500;979
212.563;993
212.625;979
212.688;979
212.750;979
212.813;976
212.875;981
212.938;983
213.000;986
213.063;983
213.125;988
213.188;976
213.250;983
213.313;981
213.375;986
213.438;979
213.500;976
213.563;981
213.625;988
213.688;981
213.750;986
213.813;986
213.875;971
213.938;976
214.000;979
214.063;976
214.125;983
214.188;988
214.250;976
214.313;981
214.375;983
214.438;988
214.500;976
214.563;979
214.625;983
214.688;976
214.750;983
214.813;983
214.875;979
214.938;979
215.000;976
215.063;983
215.125;981
215.188;983
215.250;986
215.313;983
215.375;974
215.438;988
215.500;988
215.563;976
215.625;983
215.688;979
215.750;976
215.813;983
215.875;981
215.938;981
216.000;986
216.063;983
216.125;993
216.188;988
216.250;983
216.313;983
216.375;981
216.438;986
216.500;981
216.563;981
216.625;988
216.688;983
216.750;981
216.813;981
216.875;986
216.938;988
217.000;979
217.063;983
217.125;983
217.188;983
217.250;983
217.313;976
217.375;976
217.438;976
217.500;983
217.563;986
217.625;981
217.688;976
217.750;976
217.813;983
217.875;976
217.938;986
218.000;983
218.063;979
218.125;981
218.188;986
218.250;976
218.313;981
218.375;979
218.438;986
218.500;981
218.563;996
218.625;983
218.688;981
218.750;988
218.813;981
218.875;983
218.938;983
219.000;986
219.063;983
219.125;988
219.188;979
219.250;983
219.313;991
219.375;993
219.438;976
219.500;969
219.563;979
219.625;986
219.688;979
219.750;981
219.813;986
219.875;983
219.938;981
220.000;993
220.063;979
220.125;981
220.188;983
220.250;976
220.313;986
220.375;983
220.438;981
220.500;986
220.563;988
220.625;979
220.688;983
220.750;976
220.813;988
220.875;981
220.938;981
221.000;976
221.063;986
221.125;998
221.188;1020
221.250;1035
221.313;1022
221.375;1013
221.438;998
221.500;991
221.563;974
221.625;986
221.688;983
221.750;979
221.813;988
221.875;986
221.938;981
222.000;979
222.063;983
222.125;983
222.188;983
222.250;979
222.313;981
222.375;974
222.438;979
222.500;979
222.563;983
222.625;983
222.688;979
222.750;983
222.813;976
222.875;986
222.938;983
223.000;974
223.063;986
223.125;986
223.188;983
223.250;986
223.313;986
223.375;976
223.438;981
223.500;981
223.563;981
223.625;983
223.688;974
223.750;986
223.813;979
223.875;988
223.938;986
224.000;988
224.063;986
224.125;983
224.188;988
224.250;981
224.313;983
224.375;976
224.438;988
224.500;983
224.563;979
224.625;986
224.688;983
224.750;983
224.813;983
224.875;983
224.938;983
225.000;976
225.063;996
225.125;979
225.188;979
225.250;983
225.313;988
225.375;986
225.438;981
225.500;986
225.563;983
225.625;983
225.688;988
225.750;981
225.813;981
225.875;991
225.938;986
226.000;976
226.063;979
226.125;976
226.188;981
226.250;979
226.313;974
226.375;976
226.438;983
226.500;981
226.563;981
226.625;986
226.688;981
226.750;983
226.813;988
226.875;976
226.938;979
227.000;983
227.063;981
227.125;981
227.188;983
227.250;971
227.313;979
227.375;976
227.438;988
227.500;983
227.563;981
227.625;979
227.688;981
227.750;986
227.813;983
227.875;983
227.938;991
228.000;991
228.063;979
228.125;981
228.188;988
228.250;979
228.313;986
228.375;986
228.438;983
228.500;979
228.563;986
228.625;979
228.688;981
228.750;988
228.813;979
228.875;981
228.938;981
229.000;981
229.063;983
229.125;981
229.188;981
229.250;986
229.313;979
229.375;988
229.438;979
229.500;983
229.563;993
229.625;986
229.688;983
229.750;986
229.813;988
229.875;986
229.938;979
230.000;979
230.063;986
230.125;979
230.188;981
230.250;983
230.313;983
230.375;986
230.438;983
230.500;976
230.563;983
230.625;986
230.688;981
230.750;986
230.813;983
230.875;979
230.938;976
231.000;981
231.063;986
231.125;983
231.188;983
231.250;976
231.313;979
231.375;981
231.438;983
231.500;981
231.563;983
231.625;974
231.688;983
231.750;979
231.813;986
231.875;993
231.938;976
232.000;988
232.063;979
232.125;986
232.188;988
232.250;996
232.313;993
232.375;993
232.438;998
232.500;988
232.563;986
232.625;983
232.688;986
232.750;974
232.813;981
232.875;988
232.938;981
233.000;988
233.063;979
233.125;986
233.188;991
233.250;986
233.313;986
233.375;988
233.438;988
233.500;996
233.563;996
233.625;988
233.688;981
233.750;986
233.813;986
233.875;991
233.938;983
234.000;986
234.063;979
234.125;983
234.188;981
234.250;976
234.313;979
234.375;979
234.438;979
234.500;976
234.563;988
234.625;983
234.688;983
234.750;979
234.813;983
234.875;981
234.938;979
235.000;983
235.063;988
235.125;981
235.188;979
235.250;979
235.313;986
235.375;981
235.438;983
235.500;983
235.563;979
235.625;976
235.688;991
235.750;983
235.813;986
235.875;974
235.938;979
236.000;986
236.063;983
236.125;981
236.188;981
236.250;976
236.313;974
236.375;996
236.438;976
236.500;983
236.563;979
236.625;983
236.688;988
236.750;986
236.813;979
236.875;981
236.938;976
237.000;983
237.063;983
237.125;983
237.188;983
237.250;981
237.313;986
237.375;976
237.438;981
237.500;991
237.563;986
237.625;983
237.688;986
237.750;976
237.813;981
237.875;988
237.938;981
238.000;983
238.063;981
238.125;983
238.188;979
238.250;981
238.313;983
238.375;988
238.438;981
238.500;981
238.563;983
238.625;979
238.688;981
238.750;991
238.813;993
238.875;983
238.938;979
239.000;983
239.063;986
239.125;981
239.188;974
239.250;981
239.313;976
239.375;981
239.438;981
239.500;969
239.563;974
239.625;991
239.688;974
239.750;976
239.813;983
239.875;986
239.938;981
240.000;979
240.063;981
240.125;983
240.188;988
240.250;991
240.313;986
240.375;981
240.438;976
240.500;976
240.563;979
240.625;976
240.688;981
240.750;993
240.813;974
240.875;981
240.938;986
241.000;979
241.063;986
241.125;993
241.188;983
241.250;974
241.313;976
241.375;981
241.438;983
241.500;993
241.563;976
241.625;988
241.688;981
241.750;986
241.813;976
241.875;979
241.938;991
242.000;979
242.063;983
242.125;986
242.188;983
242.250;983
242.313;993
242.375;979
242.438;986
242.500;981
242.563;983
242.625;979
242.688;983
242.750;986
242.813;981
242.875;983
242.938;974
243.000;988
243.063;979
243.125;981
243.188;983
243.250;1010
243.313;1025
243.375;1052
243.438;1025
243.500;1010
243.563;1005
243.625;979
243.688;976
243.750;986
243.813;983
243.875;991
243.938;988
244.000;986
244.063;979
244.125;981
244.188;986
244.250;981
244.313;981
244.375;976
244.438;976
244.500;981
244.563;986
244.625;979
244.688;983
244.750;986
244.813;981
244.875;983
244.938;979
245.000;981
245.063;983
245.125;983
245.188;983
245.250;981
245.313;981
245.375;986
245.438;974
245.500;988
245.563;983
245.625;986
245.688;974
245.750;979
245.813;981
245.875;983
245.938;981
246.000;988
246.063;983
246.125;983
246.188;983
246.250;983
246.313;979
246.375;991
246.438;988
246.500;974
246.563;986
246.625;986
246.688;991
246.750;983
246.813;988
246.875;979
246.938;986
247.000;988
247.063;986
247.125;983
247.188;986
247.250;983
247.313;988
247.375;979
247.438;983
247.500;979
247.563;988
247.625;983
247.688;991
247.750;979
247.813;986
247.875;981
247.938;981
248.000;974
248.063;979
248.125;983
248.188;979
248.250;983
248.313;979
248.375;981
248.438;981
248.500;988
248.563;983
248.625;986
248.688;976
248.750;979
248.813;981
248.875;983
248.938;983
249.000;986
249.063;991
249.125;983
249.188;976
249.250;983
249.313;979
249.375;986
249.438;986
249.500;983
249.563;988
249.625;979
249.688;981
249.750;983
249.813;986
249.875;983
249.938;993
250.000;1010
250.063;1015
250.125;1005
250.188;1000
250.250;998
250.313;979
250.375;983
250.438;971
250.500;981
250.563;983
250.625;986
250.688;979
250.750;986
250.813;979
250.875;983
250.938;986
251.000;983
251.063;979
251.125;988
251.188;988
251.250;976
251.313;976
251.375;981
251.438;988
251.500;979
251.563;979
251.625;974
251.688;991
251.750;983
251.813;976
251.875;988
251.938;991
252.000;996
252.063;986
252.125;993
252.188;981
252.250;981
252.313;986
252.375;986
252.438;979
252.500;976
252.563;991
252.625;983
252.688;983
252.750;983
252.813;986
252.875;991
252.938;981
253.000;979
253.063;979
253.125;981
253.188;983
253.250;976
253.313;981
253.375;986
253.438;986
253.500;983
253.563;986
253.625;981
253.688;988
253.750;979
253.813;983
253.875;981
253.938;974
254.000;986
254.063;991
254.125;986
254.188;981
254.250;986
254.313;988
254.375;981
254.438;981
254.500;988
254.563;983
254.625;991
254.688;988
254.750;976
254.813;976
254.875;976
254.938;991
255.000;983
255.063;986
255.125;981
255.188;981
255.250;981
255.313;981
255.375;979
255.438;981
255.500;988
255.563;983
255.625;979
255.688;991
255.750;986
255.813;983
255.875;986
255.938;979
256.000;986
256.063;983
256.125;979
256.188;981
256.250;971
256.313;986
256.375;981
256.438;976
256.500;991
256.563;979
256.625;981
256.688;986
256.750;976
256.813;986
256.875;991
256.938;983
257.000;983
257.063;983
257.125;979
257.188;974
257.250;981
257.313;983
257.375;986
257.438;976
257.500;974
257.563;983
257.625;983
257.688;979
257.750;983
257.813;993
257.875;983
257.938;983
258.000;986
258.063;979
258.125;971
258.188;979
258.250;986
258.313;983
258.375;986
258.438;976
258.500;991
258.563;976
258.625;983
258.688;983
258.750;979
258.813;981
258.875;986
258.938;983
259.000;983
259.063;976
259.125;979
259.188;983
259.250;981
259.313;986
259.375;983
259.438;981
259.500;981
259.563;981
259.625;986
259.688;988
259.750;976
259.813;986
259.875;979
259.938;981
260.000;986
260.063;988
260.125;983
260.188;983
260.250;986
260.313;983
260.375;981
260.438;976
260.500;976
260.563;986
260.625;988
260.688;986
260.750;986
260.813;976
260.875;986
260.938;991
261.000;981
261.063;976
261.125;986
261.188;983
261.250;979
261.313;986
261.375;979
261.438;981
261.500;986
261.563;986
261.625;983
261.688;983
261.750;976
261.813;996
261.875;986
261.938;986
262.000;986
262.063;993
262.125;988
262.188;988
262.250;983
262.313;991
262.375;981
262.438;983
262.500;993
262.563;981
262.625;988
262.688;981
262.750;988
262.813;986
262.875;986
262.938;974
263.000;981
263.063;981
263.125;983
263.188;986
263.250;983
263.313;981
263.375;981
263.438;988
263.500;979
263.563;983
263.625;986
263.688;981
263.750;974
263.813;986
263.875;974
263.938;986
264.000;983
264.063;991
264.125;988
264.188;983
264.250;983
264.313;986
264.375;986
264.438;983
264.500;983
264.563;981
264.625;974
264.688;983
264.750;979
264.813;988
264.875;979
264.938;993
265.000;974
265.063;983
265.125;983
265.188;983
265.250;974
265.313;993
265.375;993
265.438;993
265.500;986
265.563;996
265.625;983
265.688;986
265.750;979
265.813;988
265.875;986
265.938;974
266.000;983
266.063;986
266.125;976
266.188;979
266.250;986
266.313;979
266.375;993
266.438;976
266.500;976
266.563;986
266.625;979
266.688;986
266.750;986
266.813;988
266.875;986
266.938;983
267.000;969
267.063;988
267.125;981
267.188;976
267.250;993
267.313;979
267.375;986
267.438;983
267.500;991
267.563;983
267.625;986
267.688;979
267.750;983
267.813;986
267.875;983
267.938;988
268.000;986
268.063;981
268.125;988
268.188;979
268.250;981
268.313;991
268.375;979
268.438;993
268.500;988
268.563;983
268.625;981
268.688;986
268.750;988
268.813;991
268.875;993
268.938;983
269.000;996
269.063;983
269.125;981
269.188;988
269.250;983
269.313;979
269.375;979
269.438;986
269.500;979
269.563;983
269.625;976
269.688;983
269.750;981
269.813;983
269.875;976
269.938;983
270.000;981
270.063;979
270.125;988
270.188;981
270.250;981
270.313;979
270.375;986
270.438;979
270.500;983
270.563;981
270.625;988
270.688;988
270.750;983
270.813;979
270.875;981
270.938;986
271.000;986
271.063;991
271.125;986
271.188;986
271.250;988
271.313;983
271.375;974
271.438;991
271.500;988
271.563;991
271.625;974
271.688;988
271.750;976
271.813;979
271.875;979
271.938;986
272.000;986
272.063;988
272.125;986
272.188;983
272.250;991
272.313;988
272.375;976
272.438;993
272.500;988
272.563;988
272.625;981
272.688;981
272.750;979
272.813;986
272.875;981
272.938;981
273.000;986
273.063;976
273.125;976
273.188;981
273.250;981
273.313;979
273.375;986
273.438;991
273.500;983
273.563;981
273.625;979
273.688;981
273.750;988
273.813;983
273.875;983
273.938;988
274.000;981
274.063;988
274.125;983
274.188;979
274.250;986
274.313;986
274.375;986
274.438;983
274.500;981
274.563;981
274.625;976
274.688;981
274.750;986
274.813;983
274.875;983
274.938;986
275.000;993
275.063;991
275.125;974
275.188;986
275.250;981
275.313;983
275.375;979
275.438;986
275.500;979
275.563;983
275.625;981
275.688;979
275.750;979
275.813;986
275.875;979
275.938;986
276.000;983
276.063;976
276.125;979
276.188;981
276.250;986
276.313;986
276.375;983
276.438;986
276.500;993
276.563;993
276.625;998
276.688;988
276.750;986
276.813;988
276.875;983
276.938;988
277.000;983
277.063;981
277.125;986
277.188;986
277.250;991
277.313;986
277.375;986
277.438;983
277.500;981
277.563;988
277.625;986
277.688;981
277.750;988
277.813;981
277.875;988
277.938;979
278.000;991
278.063;983
278.125;981
278.188;979
278.250;983
278.313;981
278.375;981
278.438;988
278.500;976
278.563;976
278.625;991
278.688;986
278.750;988
278.813;986
278.875;976
278.938;986
279.000;988
279.063;979
279.125;979
279.188;974
279.250;974
279.313;976
279.375;983
279.438;981
279.500;991
279.563;976
279.625;986
279.688;991
279.750;983
279.813;986
279.875;976
279.938;983
280.000;988
280.063;986
280.125;991
280.188;986
280.250;988
280.313;988
280.375;974
280.438;983
280.500;976
280.563;981
280.625;981
280.688;988
280.750;991
280.813;983
280.875;979
280.938;993
281.000;991
281.063;976
281.125;986
281.188;983
281.250;991
281.313;983
281.375;991
281.438;983
281.500;981
281.563;991
281.625;991
281.688;986
281.750;986
281.813;976
281.875;974
281.938;979
282.000;986
282.063;983
282.125;981
282.188;981
282.250;981
282.313;983
282.375;976
282.438;976
282.500;986
282.563;986
282.625;986
282.688;979
282.750;988
282.813;983
282.875;988
282.938;991
283.000;986
283.063;983
283.125;983
283.188;983
283.250;981
283.313;988
283.375;981
283.438;976
283.500;979
283.563;983
283.625;981
283.688;983
283.750;981
283.813;981
283.875;979
283.938;986
284.000;986
284.063;983
284.125;974
284.188;979
284.250;983
284.313;988
284.375;986
284.438;991
284.500;983
284.563;971
284.625;976
284.688;981
284.750;979
284.813;976
284.875;986
284.938;988
285.000;986
285.063;981
285.125;983
285.188;976
285.250;983
285.313;983
285.375;979
285.438;981
285.500;986
285.563;983
285.625;981
285.688;991
285.750;983
285.813;986
285.875;981
285.938;986
286.000;986
286.063;996
286.125;986
286.188;988
286.250;986
286.313;983
286.375;981
286.438;976
286.500;986
286.563;986
286.625;979
286.688;976
286.750;986
286.813;979
286.875;988
286.938;979
287.000;981
287.063;986
287.125;988
287.188;991
287.250;986
287.313;981
287.375;979
287.438;988
287.500;979
287.563;993
287.625;979
287.688;981
287.750;993
287.813;976
287.875;976
287.938;983
288.000;983
288.063;986
288.125;986
288.188;979
288.250;983
288.313;979
288.375;993
288.438;983
288.500;976
288.563;983
288.625;976
288.688;979
288.750;983
288.813;976
288.875;983
288.938;983
289.000;979
289.063;983
289.125;991
289.188;981
289.250;986
289.313;986
289.375;983
289.438;983
289.500;986
289.563;983
289.625;979
289.688;991
289.750;991
289.813;983
289.875;979
289.938;979
290.000;981
290.063;974
290.125;979
290.188;986
290.250;981
290.313;979
290.375;986
290.438;979
290.500;979
290.563;981
290.625;983
290.688;988
290.750;988
290.813;971
290.875;979
290.938;981
291.000;981
291.063;986
291.125;976
291.188;986
291.250;976
291.313;979
291.375;986
291.438;983
291.500;976
291.563;976
291.625;986
291.688;976
291.750;991
291.813;976
291.875;974
291.938;979
292.000;988
292.063;981
292.125;979
292.188;976
292.250;981
292.313;996
292.375;988
292.438;988
292.500;986
292.563;981
292.625;983
292.688;979
292.750;976
292.813;983
292.875;971
292.938;981
293.000;986
293.063;981
293.125;983
293.188;986
293.250;974
293.313;979
293.375;979
293.438;979
293.500;983
293.563;979
293.625;981
293.688;981
293.750;976
293.813;991
293.875;983
293.938;979
294.000;986
294.063;988
294.125;981
294.188;976
294.250;979
294.313;986
294.375;983
294.438;983
294.500;986
294.563;974
294.625;986
294.688;976
294.750;983
294.813;981
294.875;991
294.938;976
295.000;986
295.063;981
295.125;979
295.188;981
295.250;983
295.313;979
295.375;981
295.438;974
295.500;981
295.563;981
295.625;988
295.688;981
295.750;988
295.813;981
295.875;979
295.938;981
296.000;981
296.063;983
296.125;976
296.188;986
296.250;988
296.313;983
296.375;983
296.438;981
296.500;988
296.563;983
296.625;979
296.688;983
296.750;979
296.813;979
296.875;981
296.938;986
297.000;974
297.063;981
297.125;971
297.188;981
297.250;983
297.313;983
297.375;981
297.438;986
297.500;981
297.563;981
297.625;981
297.688;983
297.750;986
297.813;976
297.875;981
297.938;979
298.000;986
298.063;979
298.125;986
298.188;981
298.250;981
298.313;974
298.375;986
298.438;979
298.500;981
298.563;988
298.625;988
298.688;991
298.750;979
298.813;986
298.875;981
298.938;974
299.000;993
299.063;991
299.125;979
299.188;983
299.250;979
299.313;981
299.375;979
299.438;991
299.500;979
299.563;986
299.625;983
299.688;986
299.750;983
299.813;988
299.875;986
299.938;976
300.000;979
300.063;981
300.125;986
300.188;981
300.250;981
300.313;986
300.375;988
300.438;981
300.500;981
300.563;976
300.625;979
300.688;979
300.750;983
300.813;974
300.875;981
300.938;983
301.000;974
301.063;986
301.125;979
301.188;979
301.250;979
301.313;976
301.375;979
301.438;979
301.500;981
301.563;976
301.625;991
301.688;976
301.750;976
301.813;986
301.875;979
301.938;983
302.000;993
302.063;983
302.125;986
302.188;979
302.250;981
302.313;976
302.375;983
302.438;983
302.500;976
302.563;986
302.625;988
302.688;988
302.750;983
302.813;976
302.875;974
302.938;981
303.000;979
303.063;979
303.125;986
303.188;981
303.250;981
303.313;983
303.375;976
303.438;983
303.500;974
303.563;976
303.625;988
303.688;983
303.750;983
303.813;979
303.875;983
303.938;979
304.000;983
304.063;976
304.125;976
304.188;983
304.250;981
304.313;979
304.375;979
304.438;983
304.500;974
304.563;988
304.625;976
304.688;974
304.750;988
304.813;983
304.875;983
304.938;976
305.000;981
305.063;976
305.125;986
305.188;983
305.250;981
305.313;986
305.375;981
305.438;979
305.500;976
305.563;979
305.625;991
305.688;976
305.750;976
305.813;979
305.875;974
305.938;979
306.000;983
306.063;983
306.125;981
306.188;974
306.250;979
306.313;979
306.375;976
306.438;983
306.500;979
306.563;991
306.625;974
306.688;983
306.750;976
306.813;969
306.875;974
306.938;983
307.000;981
307.063;983
307.125;983
307.188;983
307.250;976
307.313;979
307.375;976
307.438;979
307.500;986
307.563;983
307.625;983
307.688;986
307.750;981
307.813;983
307.875;986
307.938;981
308.000;988
308.063;979
308.125;983
308.188;981
308.250;976
308.313;981
308.375;979
308.438;981
308.500;976
308.563;974
308.625;974
308.688;983
308.750;979
308.813;976
308.875;979
308.938;979
309.000;981
309.063;981
309.125;986
309.188;979
309.250;986
309.313;986
309.375;986
309.438;988
309.500;979
309.563;986
309.625;983
309.688;981
309.750;988
309.813;979
309.875;979
309.938;974
310.000;983
310.063;986
310.125;988
310.188;983
310.250;974
310.313;988
310.375;979
310.438;979
310.500;976
310.563;981
310.625;991
310.688;976
310.750;983
310.813;986
310.875;979
310.938;981
311.000;986
311.063;988
311.125;976
311.188;983
311.250;983
311.313;979
311.375;976
311.438;983
311.500;981
311.563;979
311.625;983
311.688;981
311.750;988
311.813;981
311.875;979
311.938;983
312.000;981
312.063;986
312.125;988
312.188;974
312.250;981
312.313;974
312.375;983
312.438;979
312.500;986
312.563;976
312.625;979
312.688;981
312.750;981
312.813;974
312.875;986
312.938;981
313.000;981
313.063;986
313.125;983
313.188;979
313.250;991
313.313;986
313.375;979
313.438;976
313.500;986
313.563;974
313.625;974
313.688;983
313.750;981
313.813;979
313.875;981
313.938;979
314.000;986
314.063;983
314.125;979
314.188;981
314.250;976
314.313;979
314.375;976
314.438;981
314.500;969
314.563;981
314.625;974
314.688;983
314.750;971
314.813;976
314.875;981
314.938;981
315.000;986
315.063;979
315.125;974
315.188;983
315.250;988
315.313;981
315.375;983
315.438;971
315.500;976
315.563;986
315.625;981
315.688;983
315.750;983
315.813;981
315.875;979
315.938;976
316.000;981
316.063;974
316.125;983
316.188;974
316.250;979
316.313;976
316.375;974
316.438;974
316.500;974
316.563;979
316.625;983
316.688;983
316.750;971
316.813;971
316.875;986
316.938;981
317.000;981
317.063;976
317.125;983
317.188;981
317.250;983
317.313;974
317.375;976
317.438;983
317.500;983
317.563;988
317.625;981
317.688;986
317.750;983
317.813;981
317.875;979
317.938;979
318.000;981
318.063;983
318.125;979
318.188;979
318.250;983
318.313;986
318.375;976
318.438;979
318.500;974
318.563;976
318.625;971
318.688;971
318.750;979
318.813;983
318.875;976
318.938;983
319.000;974
319.063;981
319.125;979
319.188;979
319.250;979
319.313;981
319.375;979
319.438;974
319.500;976
319.563;974
319.625;981
319.688;983
319.750;974
319.813;979
319.875;979
319.938;979
320.000;986
320.063;983
320.125;986
320.188;986
320.250;983
320.313;986
320.375;986
320.438;974
320.500;981
320.563;981
320.625;983
320.688;991
320.750;979
320.813;974
320.875;979
320.938;981
321.000;986
321.063;976
321.125;979
321.188;971
321.250;976
321.313;969
321.375;981
321.438;981
321.500;974
321.563;981
321.625;983
321.688;976
321.750;976
321.813;986
321.875;974
321.938;979
322.000;979
322.063;986
322.125;981
322.188;974
322.250;974
322.313;981
322.375;983
322.438;983
322.500;979
322.563;976
322.625;981
322.688;981
322.750;979
322.813;971
322.875;979
322.938;979
323.000;979
323.063;981
323.125;979
323.188;974
323.250;974
323.313;976
323.375;974
323.438;981
323.500;981
323.563;976
323.625;981
323.688;974
323.750;974
323.813;974
323.875;979
323.938;966
324.000;974
324.063;974
324.125;976
324.188;971
324.250;966
324.313;974
324.375;979
324.438;976
324.500;983
324.563;976
324.625;986
324.688;976
324.750;981
324.813;983
324.875;981
324.938;979
325.000;971
325.063;979
325.125;981
325.188;986
325.250;979
325.313;981
325.375;983
325.438;974
325.500;971
325.563;974
325.625;983
325.688;983
325.750;979
325.813;976
325.875;974
325.938;976
326.000;986
326.063;979
326.125;981
326.188;983
326.250;976
326.313;976
326.375;983
326.438;976
326.500;981
326.563;981
326.625;983
326.688;971
326.750;976
326.813;976
326.875;976
326.938;974
327.000;976
327.063;979
327.125;979
327.188;979
327.250;971
327.313;981
327.375;979
327.438;971
327.500;979
327.563;983
327.625;974
327.688;974
327.750;974
327.813;976
327.875;983
327.938;976
328.000;979
328.063;979
328.125;969
328.188;979
328.250;981
328.313;981
328.375;986
328.438;983
328.500;981
328.563;981
328.625;983
328.688;974
328.750;976
328.813;974
328.875;979
328.938;983
329.000;981
329.063;976
329.125;988
329.188;981
329.250;981
329.313;974
329.375;974
329.438;976
329.500;991
329.563;979
329.625;983
329.688;983
329.750;979
329.813;976
329.875;974
329.938;979
330.000;981
330.063;974
330.125;981
330.188;976
330.250;974
330.313;979
330.375;976
330.438;971
330.500;971
330.563;976
330.625;974
330.688;981
330.750;979
330.813;974
330.875;983
330.938;976
331.000;981
331.063;979
331.125;981
331.188;983
331.250;979
331.313;981
331.375;966
331.438;971
331.500;979
331.563;976
331.625;986
331.688;983
331.750;974
331.813;981
331.875;986
331.938;983
332.000;976
332.063;974
332.125;979
332.188;981
332.250;986
332.313;981
332.375;983
332.438;981
332.500;979
332.563;983
332.625;983
332.688;974
332.750;971
332.813;981
332.875;986
332.938;981
333.000;986
333.063;976
333.125;976
333.188;979
333.250;979
333.313;974
333.375;976
333.438;979
333.500;974
333.563;979
333.625;974
333.688;971
333.750;979
333.813;979
333.875;976
333.938;961
334.000;979
334.063;976
334.125;979
334.188;981
334.250;976
334.313;983
334.375;974
334.438;979
334.500;979
334.563;976
334.625;976
334.688;976
334.750;974
334.813;971
334.875;979
334.938;976
335.000;976
335.063;986
335.125;981
335.188;976
335.250;981
335.313;979
335.375;966
335.438;981
335.500;979
335.563;974
335.625;974
335.688;961
335.750;974
335.813;981
335.875;974
335.938;979
336.000;974
336.063;974
336.125;969
336.188;976
336.250;976
336.313;976
336.375;979
336.438;976
336.500;979
336.563;976
336.625;971
336.688;969
336.750;981
336.813;983
336.875;974
336.938;974
337.000;983
337.063;974
337.125;976
337.188;969
337.250;986
337.313;976
337.375;974
337.438;981
337.500;979
337.563;981
337.625;983
337.688;976
337.750;974
337.813;976
337.875;976
337.938;976
338.000;976
338.063;979
338.125;976
338.188;981
338.250;974
338.313;974
338.375;983
338.438;976
338.500;974
338.563;981
338.625;974
338.688;983
338.750;971
338.813;974
338.875;974
338.938;974
339.000;979
339.063;976
339.125;974
339.188;979
339.250;974
339.313;974
339.375;974
339.438;976
339.500;981
339.563;971
339.625;976
339.688;976
339.750;969
339.813;983
339.875;983
339.938;974
340.000;983
340.063;986
340.125;981
340.188;976
340.250;964
340.313;976
340.375;976
340.438;981
340.500;974
340.563;983
340.625;979
340.688;979
340.750;979
340.813;981
340.875;986
340.938;976
341.000;979
341.063;974
341.125;983
341.188;974
341.250;966
341.313;976
341.375;974
341.438;974
341.500;974
341.563;969
341.625;976
341.688;971
341.750;979
341.813;983
341.875;974
341.938;979
342.000;976
342.063;974
342.125;979
342.188;979
342.250;983
342.313;974
342.375;979
342.438;976
342.500;974
342.563;979
342.625;971
342.688;969
342.750;971
342.813;971
342.875;971
342.938;983
343.000;976
343.063;971
343.125;966
343.188;979
343.250;981
343.313;976
343.375;974
343.438;976
343.500;966
343.563;976
343.625;974
343.688;976
343.750;981
343.813;979
343.875;971
343.938;988
344.000;974
344.063;976
344.125;974
344.188;976
344.250;974
344.313;976
344.375;986
344.438;974
344.500;971
344.563;979
344.625;966
344.688;969
344.750;969
344.813;966
344.875;976
344.938;969
345.000;986
345.063;976
345.125;986
345.188;979
345.250;974
345.313;966
345.375;976
345.438;976
345.500;976
345.563;971
345.625;976
345.688;976
345.750;966
345.813;976
345.875;976
345.938;979
346.000;976
346.063;976
346.125;983
346.188;979
346.250;969
346.313;981
346.375;974
346.438;971
346.500;974
346.563;971
346.625;974
346.688;969
346.750;969
346.813;986
346.875;976
346.938;969
347.000;979
347.063;976
347.125;976
347.188;979
347.250;971
347.313;979
347.375;961
347.438;971
347.500;979
347.563;976
347.625;974
347.688;971
347.750;974
347.813;976
347.875;966
347.938;969
348.000;971
348.063;974
348.125;976
348.188;966
348.250;971
348.313;969
348.375;971
348.438;976
348.500;971
348.563;971
348.625;974
348.688;974
348.750;969
348.813;976
348.875;979
348.938;974
349.000;974
349.063;974
349.125;971
349.188;979
349.250;976
349.313;979
349.375;971
349.438;974
349.500;983
349.563;976
349.625;981
349.688;976
349.750;974
349.813;969
349.875;979
349.938;974
350.000;976
350.063;976
350.125;974
350.188;976
350.250;976
350.313;974
350.375;971
350.438;979
350.500;976
350.563;986
350.625;981
350.688;974
350.750;974
350.813;974
350.875;974
350.938;976
351.000;974
351.063;983
351.125;981
351.188;976
351.250;971
351.313;974
351.375;974
351.438;971
351.500;976
351.563;981
351.625;974
351.688;976
351.750;974
351.813;974
351.875;974
351.938;971
352.000;981
352.063;981
352.125;979
352.188;983
352.250;981
352.313;974
352.375;986
352.438;974
352.500;979
352.563;981
352.625;976
352.688;974
352.750;976
352.813;976
352.875;974
352.938;979
353.000;976
353.063;981
353.125;976
353.188;971
353.250;976
353.313;979
353.375;979
353.438;969
353.500;969
353.563;976
353.625;969
353.688;974
353.750;979
353.813;979
353.875;981
353.938;979
354.000;979
354.063;974
354.125;981
354.188;974
354.250;971
354.313;983
354.375;979
354.438;971
354.500;974
354.563;979
354.625;969
354.688;983
354.750;976
354.813;976
354.875;979
354.938;971
355.000;971
355.063;979
355.125;979
355.188;971
355.250;979
355.313;983
355.375;979
355.438;983
355.500;976
355.563;976
355.625;971
355.688;974
355.750;974
355.813;971
355.875;979
355.938;969
356.000;981
356.063;979
356.125;971
356.188;979
356.250;974
356.313;974
356.375;979
356.438;979
356.500;986
356.563;981
356.625;979
356.688;976
356.750;971
356.813;981
356.875;981
356.938;974
357.000;974
357.063;971
357.125;976
357.188;974
357.250;971
357.313;979
357.375;976
357.438;971
357.500;974
357.563;976
357.625;969
357.688;981
357.750;976
357.813;966
357.875;981
357.938;981
358.000;966
358.063;969
358.125;986
358.188;974
358.250;983
358.313;974
358.375;976
358.438;971
358.500;979
358.563;981
358.625;961
358.688;974
358.750;979
358.813;979
358.875;974
358.938;974
359.000;964
359.063;976
359.125;974
359.188;969
359.250;976
359.313;979
359.375;976
359.438;969
359.500;976
359.563;974
359.625;981
359.688;979
359.750;974
359.813;969
359.875;981
359.938;976
360.000;976
360.063;974
360.125;979
360.188;983
360.250;986
360.313;976
360.375;971
360.438;971
360.500;974
360.563;986
360.625;983
360.688;974
360.750;979
360.813;971
360.875;976
360.938;976
361.000;981
361.063;976
361.125;964
361.188;974
361.250;974
361.313;979
361.375;974
361.438;979
361.500;976
361.563;981
361.625;974
361.688;979
361.750;976
361.813;966
361.875;974
361.938;981
362.000;971
362.063;974
362.125;969
362.188;979
362.250;979
362.313;974
362.375;979
362.438;974
362.500;971
362.563;971
362.625;971
362.688;981
362.750;974
362.813;976
362.875;974
362.938;964
363.000;976
363.063;976
363.125;964
363.188;969
363.250;981
363.313;974
363.375;974
363.438;971
363.500;971
363.563;976
363.625;979
363.688;981
363.750;976
363.813;979
363.875;976
363.938;979
364.000;986
364.063;971
364.125;981
364.188;976
364.250;976
364.313;969
364.375;976
364.438;976
364.500;976
364.563;971
364.625;976
364.688;981
364.750;979
364.813;983
364.875;971
364.938;976
365.000;988
365.063;979
365.125;974
365.188;974
365.250;976
365.313;974
365.375;971
365.438;976
365.500;976
365.563;976
365.625;974
365.688;976
365.750;983
365.813;974
365.875;974
365.938;974
366.000;976
366.063;971
366.125;979
366.188;981
366.250;979
366.313;976
366.375;983
366.438;981
366.500;979
366.563;981
366.625;976
366.688;974
366.750;974
366.813;969
366.875;976
366.938;981
367.000;974
367.063;976
367.125;974
367.188;974
367.250;976
367.313;981
367.375;981
367.438;979
367.500;981
367.563;974
367.625;971
367.688;979
367.750;969
367.813;981
367.875;981
367.938;974
368.000;976
368.063;971
368.125;966
368.188;981
368.250;974
368.313;971
368.375;971
368.438;976
368.500;974
368.563;976
368.625;971
368.688;981
368.750;971
368.813;976
368.875;983
368.938;971
369.000;976
369.063;969
369.125;981
369.188;986
369.250;981
369.313;966
369.375;979
369.438;983
369.500;979
369.563;979
369.625;979
369.688;974
369.750;971
369.813;979
369.875;979
369.938;969
370.000;976
370.063;969
370.125;974
370.188;979
370.250;974
370.313;971
370.375;966
370.438;976
370.500;974
370.563;976
370.625;976
370.688;976
370.750;974
370.813;979
370.875;971
370.938;974
371.000;986
371.063;974
371.125;974
371.188;969
371.250;983
371.313;981
371.375;979
371.438;981
371.500;979
371.563;974
371.625;974
371.688;969
371.750;976
371.813;979
371.875;976
371.938;974
372.000;976
372.063;976
372.125;981
372.188;971
372.250;974
372.313;971
372.375;979
372.438;979
372.500;974
372.563;976
372.625;976
372.688;981
372.750;979
372.813;974
372.875;974
372.938;974
373.000;974
373.063;969
373.125;974
373.188;979
373.250;974
373.313;981
373.375;981
373.438;974
373.500;974
373.563;976
373.625;976
373.688;974
373.750;971
373.813;976
373.875;974
373.938;974
374.000;974
374.063;976
374.125;976
374.188;979
374.250;971
374.313;979
374.375;971
374.438;976
374.500;979
374.563;969
374.625;983
374.688;979
374.750;971
374.813;974
374.875;976
374.938;979
375.000;988
375.063;986
375.125;993
375.188;986
375.250;983
375.313;976
375.375;979
375.438;969
375.500;969
375.563;976
375.625;971
375.688;971
375.750;974
375.813;979
375.875;971
375.938;969
376.000;981
376.063;971
376.125;966
376.188;983
376.250;981
376.313;974
376.375;981
376.438;976
376.500;976
376.563;976
376.625;976
376.688;976
376.750;981
376.813;981
376.875;979
376.938;976
377.000;974
377.063;966
377.125;974
377.188;974
377.250;971
377.313;971
377.375;964
377.438;981
377.500;971
377.563;976
377.625;974
377.688;966
377.750;976
377.813;979
377.875;986
377.938;979
378.000;979
378.063;976
378.125;976
378.188;974
378.250;976
378.313;964
378.375;976
378.438;976
378.500;976
378.563;979
378.625;974
378.688;976
378.750;979
378.813;974
378.875;969
378.938;979
379.000;981
379.063;979
379.125;966
379.188;969
379.250;981
379.313;974
379.375;976
379.438;974
379.500;986
379.563;979
379.625;983
379.688;976
379.750;979
379.813;974
379.875;974
379.938;979
380.000;969
380.063;974
380.125;983
380.188;981
380.250;976
380.313;981
380.375;981
380.438;974
380.500;981
380.563;981
380.625;966
380.688;979
380.750;979
380.813;974
380.875;979
380.938;979
381.000;969
381.063;976
381.125;979
381.188;974
381.250;979
381.313;974
381.375;971
381.438;981
381.500;974
381.563;971
381.625;983
381.688;976
381.750;976
381.813;969
381.875;974
381.938;966
382.000;966
382.063;971
382.125;979
382.188;974
382.250;974
382.313;981
382.375;983
382.438;979
382.500;983
382.563;976
382.625;976
382.688;983
382.750;976
382.813;976
382.875;981
382.938;969
383.000;979
383.063;974
383.125;979
383.188;979
383.250;971
383.313;976
383.375;974
383.438;971
383.500;983
383.563;974
383.625;976
383.688;976
383.750;969
383.813;981
383.875;981
383.938;976
384.000;974
384.063;976
384.125;976
384.188;971
384.250;971
384.313;976
384.375;974
384.438;976
384.500;976
384.563;971
384.625;976
384.688;966
384.750;979
384.813;974
384.875;981
384.938;964
385.000;974
385.063;976
385.125;976
385.188;979
385.250;976
385.313;981
385.375;979
385.438;974
385.500;981
385.563;971
385.625;976
385.688;981
385.750;983
385.813;971
385.875;974
385.938;974
386.000;971
386.063;974
386.125;971
386.188;981
386.250;981
386.313;981
386.375;974
386.438;979
386.500;979
386.563;974
386.625;979
386.688;974
386.750;971
386.813;969
386.875;974
386.938;971
387.000;976
387.063;983
387.125;981
387.188;974
387.250;974
387.313;976
387.375;979
387.438;974
387.500;979
387.563;976
387.625;976
387.688;981
387.750;974
387.813;974
387.875;974
387.938;974
388.000;966
388.063;976
388.125;971
388.188;979
388.250;976
388.313;974
388.375;969
388.438;979
388.500;974
388.563;979
388.625;971
388.688;981
388.750;976
388.813;971
388.875;979
388.938;974
389.000;974
389.063;976
389.125;976
389.188;971
389.250;974
389.313;974
389.375;976
389.438;971
389.500;979
389.563;979
389.625;969
389.688;974
389.750;981
389.813;981
389.875;983
389.938;969
390.000;976
390.063;979
390.125;979
390.188;979
390.250;983
390.313;986
390.375;964
390.438;979
390.500;979
390.563;974
390.625;969
390.688;979
390.750;971
390.813;969
390.875;976
390.938;971
391.000;971
391.063;981
391.125;986
391.188;986
391.250;979
391.313;979
391.375;981
391.438;976
391.500;979
391.563;976
391.625;969
391.688;966
391.750;966
391.813;971
391.875;971
391.938;974
392.000;974
392.063;981
392.125;971
392.188;983
392.250;971
392.313;971
392.375;976
392.438;976
392.500;979
392.563;976
392.625;976
392.688;969
392.750;979
392.813;974
392.875;979
392.938;971
393.000;974
393.063;976
393.125;971
393.188;976
393.250;979
393.313;976
393.375;974
393.438;974
393.500;971
393.563;986
393.625;979
393.688;979
393.750;976
393.813;974
393.875;971
393.938;974
394.000;986
394.063;974
394.125;983
394.188;976
394.250;976
394.313;979
394.375;971
394.438;974
394.500;976
394.563;976
394.625;974
394.688;979
394.750;976
394.813;974
394.875;974
394.938;976
395.000;971
395.063;979
395.125;979
395.188;974
395.250;971
395.313;976
395.375;974
395.438;986
395.500;981
395.563;974
395.625;979
395.688;974
395.750;976
395.813;976
395.875;976
395.938;976
396.000;971
396.063;976
396.125;983
396.188;974
396.250;979
396.313;976
396.375;974
396.438;981
396.500;976
396.563;983
396.625;971
396.688;974
396.750;981
396.813;976
396.875;969
396.938;974
397.000;974
397.063;974
397.125;979
397.188;976
397.250;974
397.313;974
397.375;976
397.438;974
397.500;979
397.563;971
397.625;976
397.688;969
397.750;974
397.813;976
397.875;971
397.938;974
398.000;979
398.063;979
398.125;976
398.188;988
398.250;996
398.313;983
398.375;986
398.438;969
398.500;974
398.563;976
398.625;979
398.688;976
398.750;971
398.813;964
398.875;976
398.938;979
399.000;974
399.063;979
399.125;976
399.188;971
399.250;976
399.313;981
399.375;971
399.438;974
399.500;979
399.563;981
399.625;966
399.688;976
399.750;974
399.813;971
399.875;969
399.938;981
400.000;976
400.063;974
400.125;979
400.188;969
400.250;976
400.313;976
400.375;981
400.438;974
400.500;974
400.563;976
400.625;974
400.688;976
400.750;966
400.813;964
400.875;979
400.938;983
401.000;983
401.063;981
401.125;971
401.188;983
401.250;979
401.313;974
401.375;976
401.438;969
401.500;981
401.563;979
401.625;971
401.688;974
401.750;971
401.813;979
401.875;976
401.938;971
402.000;979
402.063;971
402.125;974
402.188;979
402.250;976
402.313;971
402.375;979
402.438;981
402.500;976
402.563;981
402.625;976
402.688;976
402.750;979
402.813;976
402.875;974
402.938;969
403.000;971
403.063;971
403.125;974
403.188;981
403.250;974
403.313;979
403.375;979
403.438;974
403.500;976
403.563;974
403.625;971
403.688;981
403.750;974
403.813;983
403.875;981
403.938;971
404.000;981
404.063;981
404.125;974
404.188;976
404.250;979
404.313;986
404.375;981
404.438;969
404.500;971
404.563;979
404.625;974
404.688;966
404.750;979
404.813;979
404.875;976
404.938;974
405.000;979
405.063;971
405.125;979
405.188;974
405.250;974
405.313;969
405.375;974
405.438;974
405.500;976
405.563;971
405.625;981
405.688;974
405.750;979
405.813;974
405.875;976
405.938;974
406.000;976
406.063;976
406.125;976
406.188;974
406.250;974
406.313;974
406.375;976
406.438;974
406.500;974
406.563;979
406.625;969
406.688;983
406.750;976
406.813;976
406.875;974
406.938;976
407.000;971
407.063;976
407.125;974
407.188;976
407.250;979
407.313;969
407.375;979
407.438;971
407.500;971
407.563;974
407.625;976
407.688;976
407.750;986
407.813;976
407.875;979
407.938;979
408.000;979
408.063;974
408.125;986
408.188;976
408.250;971
408.313;979
408.375;974
408.438;966
408.500;979
408.563;974
408.625;969
408.688;981
408.750;974
408.813;974
408.875;981
408.938;971
409.000;976
409.063;974
409.125;974
409.188;979
409.250;976
409.313;983
409.375;981
409.438;964
409.500;979
409.563;966
409.625;969
409.688;974
409.750;974
409.813;971
409.875;979
409.938;976
410.000;979
410.063;974
410.125;979
410.188;979
410.250;976
410.313;966
410.375;979
410.438;971
410.500;976
410.563;981
410.625;974
410.688;981
410.750;979
410.813;966
410.875;971
410.938;976
411.000;969
411.063;979
411.125;976
411.188;969
411.250;981
411.313;971
411.375;976
411.438;979
411.500;974
411.563;976
411.625;976
411.688;969
411.750;974
411.813;976
411.875;971
411.938;969
412.000;969
412.063;976
412.125;979
412.188;979
412.250;974
412.313;976
412.375;974
412.438;966
412.500;969
412.563;981
412.625;974
412.688;976
412.750;979
412.813;971
412.875;976
412.938;969
413.000;966
413.063;966
413.125;979
413.188;964
413.250;966
413.313;971
413.375;976
413.438;979
413.500;979
413.563;974
413.625;964
413.688;969
413.750;971
413.813;971
413.875;974
413.938;981
414.000;971
414.063;971
414.125;976
414.188;976
414.250;981
414.313;974
414.375;971
414.438;976
414.500;971
414.563;979
414.625;969
414.688;966
414.750;976
414.813;966
414.875;976
414.938;971
415.000;979
415.063;983
415.125;971
415.188;974
415.250;979
415.313;976
415.375;974
415.438;974
415.500;974
415.563;979
415.625;976
415.688;974
415.750;969
415.813;971
415.875;971
415.938;974
416.000;974
416.063;981
416.125;979
416.188;976
416.250;976
416.313;969
416.375;969
416.438;974
416.500;971
416.563;971
416.625;976
416.688;974
416.750;976
416.813;974
416.875;971
416.938;974
417.000;976
417.063;969
417.125;974
417.188;974
417.250;969
417.313;969
417.375;981
417.438;976
417.500;983
417.563;974
417.625;969
417.688;971
417.750;966
417.813;971
417.875;971
417.938;971
418.000;976
418.063;971
418.125;969
418.188;971
418.250;976
418.313;971
418.375;974
418.438;971
418.500;971
418.563;976
418.625;969
418.688;976
418.750;969
418.813;964
418.875;979
418.938;971
419.000;976
419.063;974
419.125;971
419.188;971
419.250;976
419.313;969
419.375;974
419.438;969
419.500;966
419.563;971
419.625;971
419.688;974
419.750;979
419.813;966
419.875;971
419.938;981
420.000;983
420.063;981
420.125;966
420.188;979
420.250;974
420.313;986
420.375;976
420.438;976
420.500;974
420.563;974
420.625;976
420.688;966
420.750;979
420.813;971
420.875;974
420.938;976
421.000;971
421.063;976
421.125;979
421.188;976
421.250;974
421.313;976
421.375;976
421.438;974
421.500;974
421.563;971
421.625;961
421.688;971
421.750;966
421.813;966
421.875;981
421.938;974
422.000;979
422.063;969
422.125;969
422.188;966
422.250;971
422.313;966
422.375;981
422.438;976
422.500;979
422.563;976
422.625;974
422.688;976
422.750;971
422.813;976
422.875;981
422.938;969
423.000;974
423.063;976
423.125;969
423.188;969
423.250;976
423.313;969
423.375;974
423.438;974
423.500;974
423.563;974
423.625;974
423.688;969
423.750;974
423.813;969
423.875;971
423.938;969
424.000;979
424.063;981
424.125;966
424.188;974
424.250;979
424.313;979
424.375;969
424.438;966
424.500;969
424.563;971
424.625;966
424.688;974
424.750;964
424.813;969
424.875;971
424.938;979
425.000;974
425.063;971
425.125;976
425.188;976
425.250;961
425.313;976
425.375;976
425.438;971
425.500;964
425.563;974
425.625;974
425.688;969
425.750;974
425.813;971
425.875;981
425.938;974
426.000;971
426.063;971
426.125;974
426.188;971
426.250;983
426.313;979
426.375;971
426.438;974
426.500;971
426.563;971
426.625;976
426.688;974
426.750;969
426.813;971
426.875;971
426.938;976
427.000;964
427.063;974
427.125;964
427.188;964
427.250;981
427.313;971
427.375;976
427.438;971
427.500;964
427.563;971
427.625;966
427.688;971
427.750;969
427.813;969
427.875;971
427.938;974
428.000;971
428.063;966
428.125;974
428.188;974
428.250;986
428.313;976
428.375;971
428.438;976
428.500;969
428.563;966
428.625;974
428.688;971
428.750;969
428.813;976
428.875;971
428.938;971
429.000;971
429.063;971
429.125;976
429.188;966
429.250;966
429.313;979
429.375;966
429.438;976
429.500;969
429.563;971
429.625;976
429.688;981
429.750;981
429.813;971
429.875;966
429.938;964
430.000;969
430.063;976
430.125;964
430.188;976
430.250;979
430.313;969
430.375;966
430.438;969
430.500;979
430.563;971
430.625;971
430.688;976
430.750;966
430.813;969
430.875;964
430.938;969
431.000;974
431.063;969
431.125;969
431.188;974
431.250;974
431.313;966
431.375;974
431.438;976
431.500;974
431.563;979
431.625;966
431.688;971
431.750;974
431.813;966
431.875;969
431.938;974
432.000;979
432.063;971
432.125;981
432.188;976
432.250;974
432.313;971
432.375;979
432.438;969
432.500;969
432.563;969
432.625;974
432.688;976
432.750;966
432.813;979
432.875;969
432.938;971
433.000;971
433.063;979
433.125;976
433.188;986
433.250;971
433.313;979
433.375;981
433.438;974
433.500;979
433.563;974
433.625;974
433.688;981
433.750;966
433.813;976
433.875;983
433.938;981
434.000;976
434.063;976
434.125;981
434.188;979
434.250;971
434.313;974
434.375;979
434.438;969
434.500;969
434.563;976
434.625;971
434.688;974
434.750;974
434.813;964
434.875;964
434.938;969
435.000;976
435.063;979
435.125;966
435.188;976
435.250;969
435.313;966
435.375;969
435.438;976
435.500;976
435.563;964
435.625;969
435.688;974
435.750;976
435.813;971
435.875;976
435.938;966
436.000;974
436.063;971
436.125;971
436.188;966
436.250;966
436.313;971
436.375;971
436.438;966
436.500;974
436.563;974
436.625;969
436.688;974
436.750;974
436.813;974
436.875;971
436.938;961
437.000;966
437.063;971
437.125;971
437.188;969
437.250;976
437.313;974
437.375;976
437.438;971
437.500;976
437.563;974
437.625;976
437.688;964
437.750;966
437.813;964
437.875;971
437.938;976
438.000;974
438.063;964
438.125;969
438.188;969
438.250;964
438.313;966
438.375;976
438.438;979
438.500;971
438.563;974
438.625;971
438.688;974
438.750;976
438.813;974
438.875;961
438.938;969
439.000;974
439.063;974
439.125;976
439.188;979
439.250;976
439.313;964
439.375;964
439.438;969
439.500;969
439.563;971
439.625;969
439.688;969
439.750;966
439.813;974
439.875;971
439.938;979
440.000;971
440.063;971
440.125;964
440.188;974
440.250;966
440.313;971
440.375;971
440.438;969
440.500;969
440.563;979
440.625;969
440.688;966
440.750;971
440.813;981
440.875;971
440.938;971
441.000;981
441.063;966
441.125;979
441.188;974
441.250;966
441.313;971
441.375;969
441.438;974
441.500;966
441.563;974
441.625;976
441.688;971
441.750;969
441.813;969
441.875;976
441.938;974
442.000;966
442.063;971
442.125;971
442.188;969
442.250;971
442.313;966
442.375;974
442.438;976
442.500;983
442.563;969
442.625;976
442.688;976
442.750;981
442.813;974
442.875;974
442.938;969
443.000;976
443.063;974
443.125;971
443.188;979
443.250;979
443.313;971
443.375;971
443.438;981
443.500;971
443.563;964
443.625;971
443.688;971
443.750;964
443.813;974
443.875;969
443.938;964
444.000;976
444.063;974
444.125;974
444.188;976
444.250;974
444.313;971
444.375;971
444.438;971
444.500;971
444.563;971
444.625;979
444.688;969
444.750;966
444.813;971
444.875;971
444.938;976
445.000;974
445.063;969
445.125;961
445.188;964
445.250;974
445.313;976
445.375;971
445.438;974
445.500;974
445.563;969
445.625;974
445.688;966
445.750;976
445.813;976
445.875;969
445.938;966
446.000;976
446.063;976
446.125;974
446.188;976
446.250;974
446.313;976
446.375;971
446.438;976
446.500;979
446.563;974
446.625;969
446.688;971
446.750;971
446.813;976
446.875;979
446.938;971
447.000;974
447.063;974
447.125;979
447.188;971
447.250;971
447.313;974
447.375;971
447.438;971
447.500;969
447.563;971
447.625;966
447.688;971
447.750;974
447.813;974
447.875;976
447.938;969
448.000;964
448.063;976
448.125;971
448.188;971
448.250;966
448.313;971
448.375;969
448.438;971
448.500;979
448.563;974
448.625;971
448.688;979
448.750;969
448.813;971
448.875;976
448.938;971
449.000;974
449.063;969
449.125;983
449.188;976
449.250;966
449.313;966
449.375;979
449.438;971
449.500;974
449.563;971
449.625;974
449.688;971
449.750;976
449.813;971
449.875;979
449.938;969
450.000;976
450.063;979
450.125;983
450.188;944
450.250;935
450.313;939
450.375;1020
450.438;1027
450.500;1018
450.563;1015
450.625;1015
450.688;1020
450.750;1020
450.813;1022
450.875;1027
450.938;1022
451.000;1010
451.063;1020
451.125;1022
451.188;1018
451.250;1020
451.313;1015
451.375;1015
451.438;1020
451.500;1022
451.563;1025
451.625;1018
451.688;1027
451.750;1025
451.813;1020
451.875;1010
451.938;1020
452.000;1022
452.063;1025
452.125;1022
452.188;1022
452.250;1018
452.313;1013
452.375;1022
452.438;1015
452.500;1008
452.563;1010
452.625;1027
452.688;1020
452.750;1008
452.813;1018
452.875;1020
452.938;1032
453.000;1025
453.063;1025
453.125;1020
453.188;1018
453.250;1018
453.313;1010
453.375;1020
453.438;1025
453.500;1030
453.563;1020
453.625;1027
453.688;1027
453.750;1020
453.813;1013
453.875;1015
453.938;1022
454.000;1013
454.063;1030
454.125;1015
454.188;1020
454.250;1022
454.313;1018
454.375;1015
454.438;1020
454.500;1020
454.563;1018
454.625;1025
454.688;1018
454.750;1018
454.813;1020
454.875;1020
454.938;1022
455.000;1020
455.063;1022
455.125;1025
455.188;1020
455.250;1025
455.313;1018
455.375;1015
455.438;1015
455.500;1025
455.563;1015
455.625;1020
455.688;1010
455.750;1018
455.813;1018
455.875;1025
455.938;1025
456.000;1020
456.063;1018
456.125;1020
456.188;1010
456.250;1022
456.313;1005
456.375;1020
456.438;1020
456.500;1022
456.563;1022
456.625;1010
456.688;1022
456.750;1030
456.813;1015
456.875;1015
456.938;1025
457.000;1022
457.063;1022
457.125;1013
457.188;1013
457.250;1022
457.313;1018
457.375;1015
457.438;1000
457.500;1027
457.563;1025
457.625;1018
457.688;1020
457.750;1015
457.813;1022
457.875;1013
457.938;1025
458.000;1020
458.063;1018
458.125;1015
458.188;1010
458.250;1020
458.313;1018
458.375;1022
458.438;1018
458.500;1025
458.563;1022
458.625;1020
458.688;1020
458.750;1015
458.813;1022
458.875;1018
458.938;1013
459.000;1015
459.063;1022
459.125;1020
459.188;1015
459.250;1015
459.313;1022
459.375;1018
459.438;1013
459.500;1013
459.563;1022
459.625;1020
459.688;1020
459.750;1015
459.813;1013
459.875;1015
459.938;1015
460.000;1015
460.063;1020
460.125;1010
460.188;1025
460.250;1020
460.313;1010
460.375;1022
460.438;1010
460.500;1022
460.563;1018
460.625;1015
460.688;1010
460.750;1013
460.813;1020
460.875;1018
460.938;1018
461.000;1020
461.063;1018
461.125;1005
461.188;1010
461.250;1015
461.313;1013
461.375;1027
461.438;1010
461.500;1018
461.563;1013
461.625;1015
461.688;1018
461.750;1010
461.813;1003
461.875;1015
461.938;1008
462.000;1022
462.063;1018
462.125;1025
462.188;1022
462.250;1015
462.313;1018
462.375;1005
462.438;1008
462.500;1022
462.563;1015
462.625;1013
462.688;1022
462.750;1015
462.813;1018
462.875;1015
462.938;1010
463.000;1013
463.063;1013
463.125;1013
463.188;1020
463.250;1027
463.313;1015
463.375;1018
463.438;1013
463.500;1018
463.563;1013
463.625;1015
463.688;1013
463.750;1018
463.813;1025
463.875;1010
463.938;1013
464.000;1013
464.063;1018
464.125;1008
464.188;1013
464.250;1013
464.313;1013
464.375;1020
464.438;1015
464.500;1022
464.563;1022
464.625;1010
464.688;1020
464.750;1018
464.813;1020
464.875;1018
464.938;1025
465.000;1015
465.063;1018
465.125;1015
465.188;1015
465.250;1020
465.313;1018
465.375;1018
465.438;1020
465.500;1018
465.563;1013
465.625;1013
465.688;1013
465.750;1010
465.813;1015
465.875;1027
465.938;1015
466.000;1018
466.063;1020
466.125;1027
466.188;1013
466.250;1015
466.313;1015
466.375;1022
466.438;1015
466.500;1022
466.563;1015
466.625;1013
466.688;1022
466.750;1010
466.813;1010
466.875;1020
466.938;1010
467.000;1005
467.063;1020
467.125;1010
467.188;1025
467.250;1018
467.313;1020
467.375;1018
467.438;1013
467.500;1020
467.563;1015
467.625;1010
467.688;1008
467.750;1005
467.813;1015
467.875;1018
467.938;1005
468.000;1015
468.063;1013
468.125;1015
468.188;1015
468.250;1013
468.313;1020
468.375;1005
468.438;1010
468.500;1020
468.563;1015
468.625;1022
468.688;1015
468.750;1013
468.813;1018
468.875;1018
468.938;1015
469.000;1022
469.063;1008
469.125;1015
469.188;1008
469.250;1020
469.313;1020
469.375;1013
469.438;1005
469.500;1020
469.563;1013
469.625;1015
469.688;1010
469.750;1008
469.813;1015
469.875;1018
469.938;1020
470.000;1015
470.063;1015
470.125;1015
470.188;1015
470.250;1013
470.313;1015
470.375;1010
470.438;1000
470.500;1015
470.563;1015
470.625;1010
470.688;1018
470.750;1013
470.813;1010
470.875;1008
470.938;1015
471.000;1020
471.063;1027
471.125;1013
471.188;1003
471.250;1020
471.313;1015
471.375;1018
471.438;1015
471.500;1022
471.563;1015
471.625;1018
471.688;1013
471.750;1018
471.813;1005
471.875;1013
471.938;1018
472.000;1005
472.063;1010
472.125;1015
472.188;1018
472.250;1015
472.313;1020
472.375;1018
472.438;1018
472.500;1013
472.563;1010
472.625;1005
472.688;1013
472.750;1013
472.813;1018
472.875;1018
472.938;1015
473.000;1008
473.063;1013
473.125;1005
473.188;1015
473.250;1020
473.313;1015
473.375;1013
473.438;1005
473.500;1013
473.563;1008
473.625;1018
473.688;1013
473.750;1020
473.813;1015
473.875;1008
473.938;1018
474.000;1018
474.063;1008
474.125;1015
474.188;1008
474.250;1020
474.313;1015
474.375;1018
474.438;1013
474.500;1013
474.563;1013
474.625;1013
474.688;1015
474.750;1013
474.813;1015
474.875;1018
474.938;1015
475.000;1010
475.063;1013
475.125;1008
475.188;1015
475.250;1010
475.313;1015
475.375;1022
475.438;1003
475.500;1020
475.563;1018
475.625;1020
475.688;1015
475.750;1018
475.813;1020
475.875;1008
475.938;1015
476.000;1005
476.063;1015
476.125;1008
476.188;1013
476.250;1013
476.313;1015
476.375;1008
476.438;1010
476.500;1015
476.563;1008
476.625;1008
476.688;1010
476.750;1018
476.813;1020
476.875;1000
476.938;1010
477.000;1013
477.063;1010
477.125;1013
477.188;1008
477.250;1010
477.313;1013
477.375;1010
477.438;1018
477.500;1020
477.563;1015
477.625;1018
477.688;1010
477.750;1013
477.813;1018
477.875;1013
477.938;1010
478.000;1015
478.063;1015
478.125;1013
478.188;1015
478.250;1013
478.313;1010
478.375;1005
478.438;1010
478.500;1010
478.563;1013
478.625;1010
478.688;1003
478.750;1005
478.813;1003
478.875;1008
478.938;1010
479.000;1013
479.063;1010
479.125;1008
479.188;1010
479.250;1013
479.313;1010
479.375;1013
479.438;1003
479.500;1010
479.563;1015
479.625;1008
479.688;1010
479.750;1010
479.813;1008
479.875;1008
479.938;1015
480.000;1022
480.063;1008
480.125;1015
480.188;1005
480.250;1015
480.313;1010
480.375;1005
480.438;1010
480.500;1015
480.563;1005
480.625;1005
480.688;1008
480.750;1010
480.813;1013
480.875;1015
480.938;1010
481.000;1015
481.063;1020
481.125;1015
481.188;1010
481.250;1008
481.313;1008
481.375;1013
481.438;1008
481.500;1015
481.563;1013
481.625;1003
481.688;1013
481.750;1013
481.813;1010
481.875;1003
481.938;1008
482.000;1015
482.063;1008
482.125;1013
482.188;1010
482.250;1022
482.313;1013
482.375;1018
482.438;1000
482.500;1015
482.563;1010
482.625;1015
482.688;1008
482.750;1010
482.813;1018
482.875;1003
482.938;1008
483.000;1010
483.063;1005
483.125;1015
483.188;1010
483.250;1013
483.313;1015
483.375;998
483.438;1015
483.500;1015
483.563;1010
483.625;998
483.688;1015
483.750;1003
483.813;1003
483.875;1015
483.938;1008
484.000;1010
484.063;1000
484.125;1013
484.188;1008
484.250;1010
484.313;1005
484.375;1010
484.438;1015
484.500;1005
484.563;1010
484.625;1003
484.688;1013
484.750;1018
484.813;1010
484.875;1010
484.938;1008
485.000;1003
485.063;1013
485.125;1013
485.188;1013
485.250;1015
485.313;1008
485.375;1013
485.438;1020
485.500;1013
485.563;1005
485.625;1013
485.688;1010
485.750;1010
485.813;1005
485.875;1025
485.938;1018
486.000;1005
486.063;1013
486.125;1005
486.188;1018
486.250;1005
486.313;1003
486.375;1005
486.438;1015
486.500;1015
486.563;1010
486.625;1013
486.688;1010
486.750;1003
486.813;1013
486.875;1013
486.938;1008
487.000;1018
487.063;1013
487.125;1010
487.188;1013
487.250;1005
487.313;1003
487.375;1020
487.438;1015
487.500;1018
487.563;1010
487.625;1003
487.688;1005
487.750;998
487.813;1008
487.875;1010
487.938;1005
488.000;1010
488.063;1013
488.125;1008
488.188;1010
488.250;1010
488.313;1008
488.375;1018
488.438;1005
488.500;1015
488.563;1005
488.625;1008
488.688;1005
488.750;1013
488.813;1015
488.875;1005
488.938;1010
489.000;1008
489.063;1010
489.125;1013
489.188;998
489.250;1010
489.313;1003
489.375;1010
489.438;1003
489.500;1005
489.563;1008
489.625;1005
489.688;1003
489.750;1010
489.813;1013
489.875;1008
489.938;1010
490.000;1000
490.063;1010
490.125;1018
490.188;1005
490.250;1015
490.313;1010
490.375;1010
490.438;1008
490.500;1008
490.563;1015
490.625;1005
490.688;1008
490.750;1015
490.813;1025
490.875;1003
490.938;1005
491.000;1005
491.063;1010
491.125;1015
491.188;1015
491.250;1000
491.313;998
491.375;1005
491.438;1003
491.500;1022
491.563;1013
491.625;1010
491.688;1005
491.750;1008
491.813;1003
491.875;1008
491.938;1000
492.000;1020
492.063;1010
492.125;1015
492.188;1013
492.250;1010
492.313;1008
492.375;1008
492.438;1000
492.500;1013
492.563;1013
492.625;1008
492.688;1018
492.750;1000
492.813;1010
492.875;1003
492.938;1000
493.000;1020
493.063;1013
493.125;1010
493.188;1010
493.250;998
493.313;996
493.375;1013
493.438;1005
493.500;1005
493.563;1005
493.625;1013
493.688;1013
493.750;1008
493.813;1003
493.875;1008
493.938;1000
494.000;1008
494.063;1013
494.125;998
494.188;1015
494.250;1005
494.313;1010
494.375;1010
494.438;1010
494.500;1008
494.563;1010
494.625;1003
494.688;1013
494.750;1005
494.813;1010
494.875;1005
494.938;1008
495.000;1013
495.063;1003
495.125;1010
495.188;1003
495.250;1015
495.313;1008
495.375;1008
495.438;1005
495.500;1005
495.563;1000
495.625;1008
495.688;1008
495.750;1008
495.813;1015
495.875;1003
495.938;1003
496.000;1013
496.063;1003
496.125;1010
496.188;1010
496.250;1015
496.313;1003
496.375;1013
496.438;1000
496.500;1020
496.563;1003
496.625;1000
496.688;1005
496.750;1010
496.813;1003
496.875;1003
496.938;1010
497.000;1005
497.063;1010
497.125;1000
497.188;1005
497.250;996
497.313;1005
497.375;1003
497.438;1013
497.500;1000
497.563;1008
497.625;1008
497.688;1020
497.750;1027
497.813;1010
497.875;1018
497.938;1018
498.000;1005
498.063;1015
498.125;1013
498.188;1003
498.250;1013
498.313;1003
498.375;1000
498.438;1003
498.500;1008
498.563;1010
498.625;1005
498.688;1018
498.750;1003
498.813;1005
498.875;1013
498.938;1003
499.000;1010
499.063;1010
499.125;1003
499.188;1005
499.250;1005
499.313;1013
499.375;1003
499.438;1008
499.500;1010
499.563;1010
499.625;1008
499.688;1015
499.750;1013
499.813;1008
499.875;1000
499.938;1008
500.000;1010
500.063;1000
500.125;1013
500.188;1008
500.250;1000
500.313;998
500.375;1005
500.438;1008
500.500;1000
500.563;1008
500.625;1005
500.688;1008
500.750;1010
500.813;1003
500.875;1005
500.938;1005
501.000;1010
501.063;1000
501.125;1008
501.188;1018
501.250;1010
501.313;1005
501.375;998
501.438;1013
501.500;1003
501.563;1013
501.625;1008
501.688;1008
501.750;1015
501.813;1003
501.875;1013
501.938;1008
502.000;1008
502.063;1008
502.125;1010
502.188;1005
502.250;1000
502.313;1003
502.375;1008
502.438;1008
502.500;1008
502.563;1000
502.625;1008
502.688;1013
502.750;1000
502.813;1008
502.875;1008
502.938;998
503.000;1010
503.063;1008
503.125;1003
503.188;1003
503.250;1003
503.313;1010
503.375;1005
503.438;1010
503.500;1005
503.563;1003
503.625;1015
503.688;1003
503.750;1005
503.813;1003
503.875;1013
503.938;1022
504.000;1015
504.063;998
504.125;998
504.188;1003
504.250;1005
504.313;1000
504.375;1005
504.438;996
504.500;998
504.563;1008
504.625;1005
504.688;1003
504.750;1003
504.813;998
504.875;1013
504.938;1005
505.000;1018
505.063;1010
505.125;1008
505.188;1005
505.250;1008
505.313;1008
505.375;1005
505.438;1005
505.500;1015
505.563;998
505.625;1003
505.688;1005
505.750;1008
505.813;1003
505.875;1005
505.938;1010
506.000;1005
506.063;1005
506.125;1008
506.188;998
506.250;998
506.313;1008
506.375;998
506.438;1008
506.500;1010
506.563;1005
506.625;1000
506.688;1000
506.750;1008
506.813;1022
506.875;1005
506.938;1010
507.000;1010
507.063;1005
507.125;1003
507.188;1000
507.250;1005
507.313;1010
507.375;1000
507.438;1005
507.500;998
507.563;1018
507.625;1008
507.688;1005
507.750;1005
507.813;1005
507.875;1005
507.938;1005
508.000;1005
508.063;1005
508.125;1000
508.188;1018
508.250;998
508.313;1005
508.375;1003
508.438;1000
508.500;1003
508.563;996
508.625;1005
508.688;1015
508.750;1008
508.813;998
508.875;1013
508.938;1003
509.000;1013
509.063;1000
509.125;1008
509.188;1003
509.250;1005
509.313;1005
509.375;1010
509.438;1003
509.500;1005
509.563;1003
509.625;998
509.688;1005
509.750;1003
509.813;998
509.875;1008
509.938;1003
510.000;1010
510.063;1010
510.125;1008
510.188;1005
510.250;998
510.313;1005
510.375;1003
510.438;1003
510.500;998
510.563;1003
510.625;1003
510.688;1008
510.750;1008
510.813;1013
510.875;1013
510.938;998
511.000;1010
511.063;1008
511.125;1003
511.188;1000
511.250;1010
511.313;996
511.375;1010
511.438;1003
511.500;998
511.563;1003
511.625;1010
511.688;1005
511.750;998
511.813;996
511.875;998
511.938;1005
512.000;1008
512.063;1000
512.125;1003
512.188;1003
512.250;1005
512.313;998
512.375;1015
512.438;1005
512.500;996
512.563;1010
512.625;1013
512.688;1008
512.750;996
512.813;1005
512.875;1000
512.938;1008
513.000;1005
513.063;1013
513.125;1000
513.188;1008
513.250;1010
513.313;1003
513.375;1008
513.438;1003
513.500;1003
513.563;1008
513.625;1008
513.688;1005
513.750;1008
513.813;1005
513.875;1003
513.938;1008
514.000;1003
514.063;1005
514.125;1008
514.188;1010
514.250;1005
514.313;1000
514.375;1015
514.438;1005
514.500;998
514.563;1005
514.625;998
514.688;998
514.750;1003
514.813;1005
514.875;1003
514.938;1010
515.000;1003
515.063;1005
515.125;1003
515.188;1003
515.250;1013
515.313;1003
515.375;1005
515.438;1015
515.500;1025
515.563;1010
515.625;1013
515.688;1020
515.750;1005
515.813;1000
515.875;1015
515.938;1000
516.000;1003
516.063;1015
516.125;1003
516.188;1000
516.250;1005
516.313;1008
516.375;1010
516.438;1005
516.500;1000
516.563;1005
516.625;998
516.688;998
516.750;1005
516.813;996
516.875;998
516.938;1003
517.000;996
517.063;1005
517.125;1003
517.188;1003
517.250;1003
517.313;1008
517.375;1000
517.438;998
517.500;996
517.563;1008
517.625;1013
517.688;1003
517.750;1010
517.813;998
517.875;1008
517.938;1005
518.000;996
518.063;1008
518.125;1003
518.188;998
518.250;1008
518.313;1003
518.375;1000
518.438;998
518.500;1005
518.563;1000
518.625;1003
518.688;1005
518.750;1000
518.813;1000
518.875;1003
518.938;1005
519.000;1005
519.063;996
519.125;1000
519.188;1005
519.250;998
519.313;1018
519.375;1000
519.438;1000
519.500;1010
519.563;1005
519.625;1013
519.688;1003
519.750;1000
519.813;1000
519.875;1000
519.938;1010
520.000;1005
520.063;1005
520.125;998
520.188;1003
520.250;1005
520.313;1005
520.375;998
520.438;1008
520.500;1003
520.563;998
520.625;1000
520.688;1005
520.750;1000
520.813;1000
520.875;1000
520.938;1005
521.000;996
521.063;998
521.125;1013
521.188;1005
521.250;1003
521.313;1013
521.375;1000
521.438;1010
521.500;1008
521.563;1003
521.625;1010
521.688;1003
521.750;998
521.813;1005
521.875;1000
521.938;1015
522.000;1003
522.063;1003
522.125;1010
522.188;1005
522.250;1005
522.313;1003
522.375;1000
522.438;1003
522.500;996
522.563;1010
522.625;998
522.688;1003
522.750;993
522.813;991
522.875;1013
522.938;1003
523.000;998
523.063;1013
523.125;1015
523.188;998
523.250;1000
523.313;1005
523.375;996
523.438;1000
523.500;1013
523.563;1005
523.625;1005
523.688;1003
523.750;1003
523.813;1003
523.875;998
523.938;1000
524.000;1010
524.063;1003
524.125;1015
524.188;1008
524.250;998
524.313;1005
524.375;1013
524.438;1003
524.500;1000
524.563;993
524.625;1003
524.688;996
524.750;1003
524.813;996
524.875;996
524.938;998
525.000;996
525.063;1003
525.125;996
525.188;1000
525.250;1000
525.313;993
525.375;1003
525.438;998
525.500;1003
525.563;996
525.625;998
525.688;1005
525.750;1005
525.813;1008
525.875;1003
525.938;1000
526.000;1005
526.063;1008
526.125;993
526.188;996
526.250;1010
526.313;1003
526.375;996
526.438;1008
526.500;1008
526.563;1000
526.625;1008
526.688;1008
526.750;998
526.813;998
526.875;1003
526.938;1003
527.000;998
527.063;1003
527.125;1003
527.188;1005
527.250;991
527.313;1008
527.375;1005
527.438;1003
527.500;1010
527.563;1005
527.625;1008
527.688;996
527.750;993
527.813;1010
527.875;1000
527.938;993
528.000;1005
528.063;1003
528.125;1000
528.188;998
528.250;998
528.313;1010
528.375;1008
528.438;1000
528.500;1000
528.563;1008
528.625;998
528.688;1008
528.750;1005
528.813;996
528.875;1000
528.938;998
529.000;1000
529.063;996
529.125;1000
529.188;996
529.250;1003
529.313;998
529.375;1005
529.438;1003
529.500;998
529.563;1013
529.625;1000
529.688;1008
529.750;1008
529.813;1005
529.875;1010
529.938;1005
530.000;1000
530.063;1005
530.125;1010
530.188;1003
530.250;1000
530.313;1008
530.375;1005
530.438;1000
530.500;1003
530.563;996
530.625;996
530.688;1000
530.750;996
530.813;1000
530.875;1010
530.938;993
531.000;1008
531.063;1010
531.125;998
531.188;1005
531.250;1000
531.313;1005
531.375;1000
531.438;1008
531.500;1008
531.563;1013
531.625;1013
531.688;996
531.750;1000
531.813;1005
531.875;998
531.938;1003
532.000;1005
532.063;1005
532.125;996
532.188;998
532.250;996
532.313;1018
532.375;1008
532.438;1008
532.500;998
532.563;991
532.625;1000
532.688;1005
532.750;1000
532.813;996
532.875;1003
532.938;996
533.000;1003
533.063;1005
533.125;1005
533.188;1005
533.250;1000
533.313;1003
533.375;1000
533.438;1000
533.500;1003
533.563;1003
533.625;1000
533.688;1005
533.750;993
533.813;1003
533.875;993
533.938;1008
534.000;1000
534.063;1008
534.125;998
534.188;1000
534.250;1003
534.313;1003
534.375;1005
534.438;1003
534.500;1003
534.563;998
534.625;998
534.688;998
534.750;996
534.813;1000
534.875;996
534.938;993
535.000;996
535.063;1003
535.125;1003
535.188;1005
535.250;1013
535.313;993
535.375;998
535.438;998
535.500;1005
535.563;998
535.625;998
535.688;1010
535.750;1003
535.813;1010
535.875;998
535.938;1003
536.000;996
536.063;1003
536.125;1003
536.188;1003
536.250;1003
536.313;991
536.375;991
536.438;991
536.500;1005
536.563;1010
536.625;1003
536.688;993
536.750;1003
536.813;1008
536.875;996
536.938;1008
537.000;1000
537.063;998
537.125;1000
537.188;1005
537.250;1003
537.313;1003
537.375;1003
537.438;1005
537.500;1000
537.563;991
537.625;1000
537.688;1000
537.750;1008
537.813;1000
537.875;998
537.938;1005
538.000;996
538.063;998
538.125;1005
538.188;998
538.250;1000
538.313;1005
538.375;993
538.438;1005
538.500;1000
538.563;993
538.625;996
538.688;1000
538.750;1003
538.813;1000
538.875;1000
538.938;998
539.000;1005
539.063;1003
539.125;1000
539.188;996
539.250;1000
539.313;1003
539.375;1005
539.438;1000
539.500;1000
539.563;1000
539.625;1003
539.688;1000
539.750;998
539.813;998
539.875;1005
539.938;1008
540.000;1000
540.063;1000
540.125;1000
540.188;1010
540.250;1000
540.313;1005
540.375;996
540.438;1000
540.500;1000
540.563;1003
540.625;1003
540.688;1003
540.750;993
540.813;1000
540.875;991
540.938;991
541.000;998
541.063;1005
541.125;1003
541.188;1000
541.250;996
541.313;996
541.375;996
541.438;1000
541.500;998
541.563;998
541.625;1005
541.688;996
541.750;1003
541.813;998
541.875;1005
541.938;1005
542.000;1003
542.063;1005
542.125;1000
542.188;996
542.250;1000
542.313;1003
542.375;1000
542.438;1000
542.500;996
542.563;1003
542.625;996
542.688;1005
542.750;1005
542.813;1008
542.875;998
542.938;1008
543.000;996
543.063;1008
543.125;1003
543.188;991
543.250;1003
543.313;1003
543.375;993
543.438;996
543.500;1000
543.563;998
543.625;998
543.688;1003
543.750;1003
543.813;998
543.875;996
543.938;1003
544.000;998
544.063;1005
544.125;1000
544.188;998
544.250;1003
544.313;996
544.375;1000
544.438;1003
544.500;1005
544.563;996
544.625;1005
544.688;998
544.750;993
544.813;1003
544.875;998
544.938;998
545.000;1003
545.063;1000
545.125;1010
545.188;1003
545.250;1000
545.313;1013
545.375;998
545.438;1000
545.500;1010
545.563;998
545.625;998
545.688;1008
545.750;1000
545.813;998
545.875;993
545.938;1005
546.000;1005
546.063;996
546.125;996
546.188;993
546.250;993
546.313;993
546.375;1008
546.438;996
546.500;996
546.563;1005
546.625;998
546.688;1000
546.750;998
546.813;988
546.875;993
546.938;993
547.000;1003
547.063;993
547.125;1005
547.188;996
547.250;998
547.313;1005
547.375;1000
547.438;1000
547.500;998
547.563;1005
547.625;996
547.688;998
547.750;991
547.813;998
547.875;991
547.938;993
548.000;998
548.063;1003
548.125;991
548.188;996
548.250;988
548.313;1005
548.375;988
548.438;1008
548.500;1005
548.563;1000
548.625;1000
548.688;996
548.750;1003
548.813;1008
548.875;998
548.938;996
549.000;996
549.063;998
549.125;998
549.188;1000
549.250;1008
549.313;1000
549.375;998
549.438;991
549.500;998
549.563;993
549.625;1000
549.688;996
549.750;1003
549.813;1000
549.875;1003
549.938;1005
550.000;991
550.063;1003
550.125;1003
550.188;998
550.250;996
550.313;1000
550.375;998
550.438;991
550.500;993
550.563;998
550.625;991
550.688;1008
550.750;1000
550.813;1005
550.875;1000
550.938;1003
551.000;996
551.063;998
551.125;998
551.188;993
551.250;988
551.313;996
551.375;998
551.438;998
551.500;996
551.563;1005
551.625;998
551.688;988
551.750;998
551.813;998
551.875;996
551.938;1005
552.000;1000
552.063;1000
552.125;996
552.188;998
552.250;998
552.313;998
552.375;991
552.438;996
552.500;1000
552.563;996
552.625;998
552.688;998
552.750;996
552.813;1005
552.875;1003
552.938;1010
553.000;1000
553.063;1010
553.125;998
553.188;1000
553.250;996
553.313;1003
553.375;1000
553.438;1000
553.500;1000
553.563;996
553.625;996
553.688;1000
553.750;986
553.813;1003
553.875;996
553.938;993
554.000;991
554.063;1003
554.125;996
554.188;998
554.250;1003
554.313;1000
554.375;998
554.438;996
554.500;996
554.563;996
554.625;1003
554.688;996
554.750;998
554.813;1003
554.875;998
554.938;1000
555.000;998
555.063;1000
555.125;1000
555.188;993
555.250;998
555.313;1000
555.375;1005
555.438;998
555.500;998
555.563;996
555.625;996
555.688;1005
555.750;998
555.813;993
555.875;996
555.938;993
556.000;1003
556.063;1003
556.125;1005
556.188;1005
556.250;998
556.313;1000
556.375;996
556.438;996
556.500;991
556.563;1000
556.625;1000
556.688;996
556.750;996
556.813;996
556.875;996
556.938;1000
557.000;996
557.063;991
557.125;1000
557.188;991
557.250;1003
557.313;993
557.375;1013
557.438;998
557.500;991
557.563;1003
557.625;996
557.688;1003
557.750;1000
557.813;1003
557.875;996
557.938;1000
558.000;993
558.063;1000
558.125;988
558.188;1000
558.250;1000
558.313;1003
558.375;1000
558.438;998
558.500;991
558.563;1003
558.625;1003
558.688;998
558.750;1000
558.813;1000
558.875;996
558.938;1000
559.000;998
559.063;998
559.125;993
559.188;1000
559.250;1005
559.313;996
559.375;1003
559.438;1003
559.500;996
559.563;996
559.625;1003
559.688;998
559.750;991
559.813;998
559.875;993
559.938;1000
560.000;993
560.063;1008
560.125;993
560.188;998
560.250;1005
560.313;1003
560.375;991
560.438;1008
560.500;998
560.563;1000
560.625;1000
560.688;1003
560.750;1005
560.813;1000
560.875;1000
560.938;998
561.000;1000
561.063;1003
561.125;1003
561.188;996
561.250;996
561.313;998
561.375;996
561.438;1003
561.500;991
561.563;996
561.625;996
561.688;998
561.750;998
561.813;991
561.875;991
561.938;1005
562.000;996
562.063;998
562.125;988
562.188;1005
562.250;996
562.313;993
562.375;1003
562.438;993
562.500;1005
562.563;996
562.625;993
562.688;1000
562.750;998
562.813;1003
562.875;1000
562.938;986
563.000;996
563.063;1008
563.125;996
563.188;1003
563.250;991
563.313;996
563.375;998
563.438;996
563.500;1003
563.563;993
563.625;996
563.688;1005
563.750;1000
563.813;1010
563.875;1008
563.938;1003
564.000;991
564.063;1008
564.125;1008
564.188;996
564.250;996
564.313;998
564.375;996
564.438;998
564.500;996
564.563;996
564.625;1003
564.688;998
564.750;996
564.813;993
564.875;996
564.938;1005
565.000;996
565.063;1000
565.125;998
565.188;993
565.250;1003
565.313;1005
565.375;991
565.438;1015
565.500;998
565.563;998
565.625;1000
565.688;1003
565.750;998
565.813;998
565.875;1003
565.938;1000
566.000;996
566.063;998
566.125;1000
566.188;996
566.250;993
566.313;996
566.375;993
566.438;1005
566.500;1008
566.563;1005
566.625;1003
566.688;993
566.750;1000
566.813;1000
566.875;993
566.938;998
567.000;1000
567.063;998
567.125;998
567.188;993
567.250;993
567.313;998
567.375;996
567.438;1000
567.500;998
567.563;1005
567.625;998
567.688;1000
567.750;991
567.813;1000
567.875;1008
567.938;998
568.000;998
568.063;996
568.125;998
568.188;998
568.250;998
568.313;1000
568.375;998
568.438;996
568.500;991
568.563;998
568.625;1000
568.688;998
568.750;1000
568.813;1000
568.875;996
568.938;998
569.000;1000
569.063;993
569.125;996
569.188;1003
569.250;988
569.313;991
569.375;1000
569.438;998
569.500;993
569.563;1000
569.625;998
569.688;996
569.750;993
569.813;1003
569.875;998
569.938;998
570.000;998
570.063;996
570.125;1000
570.188;998
570.250;993
570.313;993
570.375;996
570.438;996
570.500;998
570.563;1003
570.625;996
570.688;991
570.750;996
570.813;996
570.875;1010
570.938;998
571.000;998
571.063;998
571.125;1000
571.188;1005
571.250;1010
571.313;1003
571.375;1008
571.438;996
571.500;998
571.563;1003
571.625;1000
571.688;993
571.750;1003
571.813;998
571.875;996
571.938;1000
572.000;996
572.063;1003
572.125;998
572.188;998
572.250;998
572.313;998
572.375;996
572.438;1000
572.500;1000
572.563;998
572.625;998
572.688;1003
572.750;1003
572.813;1005
572.875;1003
572.938;993
573.000;1000
573.063;1000
573.125;996
573.188;1008
573.250;1000
573.313;1000
573.375;996
573.438;998
573.500;1010
573.563;1005
573.625;996
573.688;993
573.750;1003
573.813;991
573.875;1003
573.938;1000
574.000;1008
574.063;998
574.125;1003
574.188;996
574.250;1005
574.313;1005
574.375;1000
574.438;1005
574.500;1003
574.563;998
574.625;1000
574.688;991
574.750;996
574.813;993
574.875;998
574.938;1003
575.000;1010
575.063;1008
575.125;1010
575.188;1008
575.250;1013
575.313;1010
575.375;991
575.438;1003
575.500;1010
575.563;1000
575.625;1000
575.688;1003
575.750;1000
575.813;993
575.875;1005
575.938;993
576.000;1003
576.063;998
576.125;998
576.188;1000
576.250;1005
576.313;1000
576.375;998
576.438;1003
576.500;1008
576.563;996
576.625;996
576.688;1005
576.750;996
576.813;1000
576.875;998
576.938;1000
577.000;998
577.063;998
577.125;1008
577.188;1008
577.250;1005
577.313;1000
577.375;1003
577.438;1000
577.500;1000
577.563;1003
577.625;1003
577.688;996
577.750;996
577.813;998
577.875;998
577.938;1003
578.000;1000
578.063;1005
578.125;1005
578.188;1003
578.250;998
578.313;993
578.375;1003
578.438;1003
578.500;996
578.563;998
578.625;996
578.688;1000
578.750;991
578.813;998
578.875;1003
578.938;1000
579.000;991
579.063;993
579.125;1000
579.188;1000
579.250;1000
579.313;1005
579.375;993
579.438;1000
579.500;998
579.563;1000
579.625;998
579.688;1000
579.750;1003
579.813;996
579.875;998
579.938;1005
580.000;1003
580.063;1003
580.125;1005
580.188;1000
580.250;993
580.313;1005
580.375;996
580.438;996
580.500;1003
580.563;988
580.625;996
580.688;998
580.750;996
580.813;1005
580.875;1005
580.938;1003
581.000;1003
581.063;1008
581.125;1005
581.188;1003
581.250;1000
581.313;993
581.375;998
581.438;991
581.500;996
581.563;998
581.625;1000
581.688;1000
581.750;1000
581.813;1005
581.875;993
581.938;1005
582.000;996
582.063;1000
582.125;1005
582.188;996
582.250;1008
582.313;1003
582.375;998
582.438;996
582.500;1003
582.563;1010
582.625;1003
582.688;998
582.750;998
582.813;998
582.875;998
582.938;988
583.000;998
583.063;1003
583.125;1000
583.188;998
583.250;1000
583.313;998
583.375;993
583.438;1003
583.500;1005
583.563;1005
583.625;1000
583.688;1003
583.750;1003
583.813;1003
583.875;1005
583.938;1005
584.000;1000
584.063;1003
584.125;1003
584.188;1000
584.250;996
584.313;1008
584.375;993
584.438;1003
584.500;1003
584.563;998
584.625;996
584.688;993
584.750;993
584.813;998
584.875;1000
584.938;1000
585.000;998
585.063;998
585.125;1005
585.188;1005
585.250;1000
585.313;1010
585.375;991
585.438;993
585.500;1005
585.563;1003
585.625;1003
585.688;1005
585.750;1003
585.813;1003
585.875;991
585.938;1000
586.000;996
586.063;998
586.125;1005
586.188;1013
586.250;1005
586.313;1000
586.375;1003
586.438;1003
586.500;1000
586.563;1005
586.625;1005
586.688;1000
586.750;1003
586.813;1005
586.875;1003
586.938;1010
587.000;1000
587.063;998
587.125;1000
587.188;1003
587.250;998
587.313;1003
587.375;1000
587.438;1000
587.500;1000
587.563;996
587.625;996
587.688;1000
587.750;993
587.813;1000
587.875;1005
587.938;1005
588.000;1005
588.063;1000
588.125;998
588.188;1003
588.250;1000
588.313;998
588.375;1003
588.438;986
588.500;1003
588.563;1000
588.625;998
588.688;993
588.750;1008
588.813;996
588.875;1005
588.938;996
589.000;998
589.063;998
589.125;998
589.188;996
589.250;996
589.313;1005
589.375;996
589.438;1008
589.500;1003
589.563;998
589.625;998
589.688;1005
589.750;1003
589.813;1005
589.875;1005
589.938;1005
590.000;1003
590.063;1003
590.125;991
590.188;1003
590.250;1000
590.313;996
590.375;998
590.438;996
590.500;996
590.563;1005
590.625;998
590.688;998
590.750;996
590.813;998
590.875;1003
590.938;998
591.000;996
591.063;1010
591.125;1005
591.188;1005
591.250;1013
591.313;1010
591.375;1003
591.438;1000
591.500;1003
591.563;1010
591.625;1000
591.688;996
591.750;1003
591.813;998
591.875;993
591.938;1000
592.000;1013
592.063;1010
592.125;1000
592.188;996
592.250;998
592.313;993
592.375;996
592.438;1000
592.500;1005
592.563;998
592.625;993
592.688;1013
592.750;1003
592.813;998
592.875;993
592.938;998
593.000;1005
593.063;1000
593.125;1008
593.188;1003
593.250;998
593.313;1003
593.375;1005
593.438;993
593.500;996
593.563;991
593.625;1005
593.688;996
593.750;1005
593.813;993
593.875;996
593.938;996
594.000;996
594.063;1003
594.125;998
594.188;1003
594.250;996
594.313;1000
594.375;1003
594.438;993
594.500;998
594.563;1005
594.625;1000
594.688;1000
594.750;1010
594.813;1003
594.875;1010
594.938;998
595.000;998
595.063;1005
595.125;998
595.188;1000
595.250;1008
595.313;998
595.375;1000
595.438;1005
595.500;1010
595.563;996
595.625;993
595.688;1000
595.750;1010
595.813;993
595.875;996
595.938;1003
596.000;1003
596.063;998
596.125;996
596.188;1000
596.250;998
596.313;1000
596.375;1003
596.438;1005
596.500;1003
596.563;1003
596.625;996
596.688;993
596.750;998
596.813;1005
596.875;1003
596.938;993
597.000;996
597.063;1003
597.125;1005
597.188;1015
597.250;1015
597.313;1025
597.375;1010
597.438;1015
597.500;1003
597.563;1005
597.625;1003
597.688;1005
597.750;993
597.813;1005
597.875;1005
597.938;1008
598.000;1000
598.063;1000
598.125;998
598.188;996
598.250;1000
598.313;998
598.375;1003
598.438;1005
598.500;998
598.563;1003
598.625;998
598.688;988
598.750;1005
598.813;1003
598.875;1003
598.938;1013
599.000;1000
599.063;1005
599.125;1000
599.188;993
599.250;996
599.313;1005
599.375;1003
599.438;1003
599.500;1003
599.563;1010
599.625;1003
599.688;1003
599.750;998
599.813;1003
599.875;1005
599.938;993
600.000;1003
600.063;998
600.125;1000
600.188;1003
600.250;1000
600.313;1008
600.375;1008
600.438;1003
600.500;1000
600.563;998
600.625;1008
600.688;1003
600.750;1008
600.813;1005
600.875;996
600.938;1003
601.000;1003
601.063;1003
601.125;1010
601.188;1008
601.250;1005
601.313;1003
601.375;1003
601.438;1000
601.500;1003
601.563;1000
601.625;993
601.688;1000
601.750;1000
601.813;1003
601.875;1005
601.938;1003
602.000;1013
602.063;1003
602.125;998
602.188;1000
602.250;1013
602.313;1008
602.375;1003
602.438;1000
602.500;1008
602.563;1010
602.625;998
602.688;1000
602.750;1010
602.813;1000
602.875;996
602.938;1000
603.000;993
603.063;1003
603.125;996
603.188;1003
603.250;1000
603.313;996
603.375;1000
603.438;1003
603.500;1005
603.563;1005
603.625;1003
603.688;1005
603.750;1000
603.813;986
603.875;998
603.938;1005
604.000;998
604.063;1008
604.125;996
604.188;996
604.250;998
604.313;1003
604.375;1005
604.438;1005
604.500;1005
604.563;1000
604.625;1003
604.688;1000
604.750;1003
604.813;996
604.875;1010
604.938;998
605.000;1000
605.063;998
605.125;1008
605.188;998
605.250;1005
605.313;1005
605.375;996
605.438;1005
605.500;993
605.563;1003
605.625;1005
605.688;1008
605.750;998
605.813;998
605.875;1008
605.938;1000
606.000;1005
606.063;1000
606.125;1000
606.188;1010
606.250;1005
606.313;1003
606.375;1005
606.438;1013
606.500;1003
606.563;998
606.625;1003
606.688;1003
606.750;1000
606.813;996
606.875;1008
606.938;1000
607.000;1003
607.063;1010
607.125;1000
607.188;1003
607.250;1003
607.313;1005
607.375;1003
607.438;996
607.500;998
607.563;1003
607.625;1000
607.688;1003
607.750;1008
607.813;1005
607.875;1000
607.938;1005
608.000;1003
608.063;998
608.125;1005
608.188;1003
608.250;1008
608.313;1008
608.375;1003
608.438;1003
608.500;1000
608.563;1008
608.625;1000
608.688;1005
608.750;1005
608.813;998
608.875;1005
608.938;1003
609.000;1005
609.063;1000
609.125;1000
609.188;1003
609.250;996
609.313;996
609.375;998
609.438;1003
609.500;998
609.563;998
609.625;1000
609.688;1010
609.750;998
609.813;1000
609.875;1003
609.938;1008
610.000;1005
610.063;1013
610.125;998
610.188;1003
610.250;1008
610.313;1013
610.375;1005
610.438;1005
610.500;1003
610.563;1005
610.625;1010
610.688;1003
610.750;1005
610.813;1003
610.875;1003
610.938;1013
611.000;998
611.063;1005
611.125;996
611.188;998
611.250;1005
611.313;1005
611.375;1000
611.438;1008
611.500;1005
611.563;998
611.625;1003
611.688;1005
611.750;996
611.813;991
611.875;1000
611.938;1005
612.000;1000
612.063;1005
612.125;1000
612.188;1000
612.250;988
612.313;998
612.375;991
612.438;1003
612.500;1008
612.563;998
612.625;1005
612.688;1008
612.750;996
612.813;1003
612.875;1003
612.938;996
613.000;996
613.063;1005
613.125;1000
613.188;1003
613.250;998
613.313;998
613.375;1005
613.438;1003
613.500;998
613.563;1005
613.625;996
613.688;998
613.750;993
613.813;1005
613.875;1000
613.938;998
614.000;1005
614.063;1005
614.125;1003
614.188;998
614.250;993
614.313;1000
614.375;1010
614.438;1008
614.500;1005
614.563;1005
614.625;1003
614.688;1005
614.750;996
614.813;998
614.875;1000
614.938;1003
615.000;1005
615.063;1005
615.125;1008
615.188;1008
615.250;996
615.313;1008
615.375;1003
615.438;1000
615.500;998
615.563;1005
615.625;1003
615.688;1003
615.750;996
615.813;1005
615.875;993
615.938;1013
616.000;1003
616.063;996
616.125;998
616.188;1003
616.250;1008
616.313;1005
616.375;1005
616.438;1003
616.500;991
616.563;1003
616.625;1000
616.688;1008
616.750;998
616.813;1010
616.875;996
616.938;1003
617.000;1000
617.063;1003
617.125;1005
617.188;1005
617.250;998
617.313;1003
617.375;1000
617.438;1005
617.500;1000
617.563;1003
617.625;1003
617.688;993
617.750;1000
617.813;1003
617.875;1010
617.938;1005
618.000;996
618.063;998
618.125;1003
618.188;1008
618.250;996
618.313;1005
618.375;1000
618.438;1005
618.500;1003
618.563;1005
618.625;993
618.688;1000
618.750;996
618.813;1005
618.875;1005
618.938;1003
619.000;1000
619.063;1003
619.125;998
619.188;998
619.250;998
619.313;1005
619.375;1005
619.438;1013
619.500;1008
619.563;996
619.625;1005
619.688;1003
619.750;1008
619.813;1005
619.875;1005
619.938;1000
620.000;998
620.063;1000
620.125;996
620.188;1003
620.250;1000
620.313;1005
620.375;1005
620.438;1003
620.500;1003
620.563;1005
620.625;998
620.688;1003
620.750;993
620.813;1008
620.875;998
620.938;991
621.000;1000
621.063;998
621.125;1003
621.188;998
621.250;1005
621.313;996
621.375;998
621.438;1003
621.500;998
621.563;998
621.625;998
621.688;1005
621.750;993
621.813;1003
621.875;1005
621.938;1000
622.000;1003
622.063;1003
622.125;1003
622.188;1008
622.250;1003
622.313;1000
622.375;1005
622.438;998
622.500;1010
622.563;993
622.625;993
622.688;1000
622.750;996
622.813;998
622.875;1010
622.938;1000
623.000;996
623.063;1008
623.125;1008
623.188;998
623.250;1000
623.313;998
623.375;1005
623.438;1003
623.500;1010
623.563;1000
623.625;1000
623.688;998
623.750;1005
623.813;1003
623.875;1003
623.938;1003
624.000;1010
624.063;1013
624.125;1005
624.188;1000
624.250;998
624.313;1000
624.375;1008
624.438;996
624.500;1005
624.563;996
624.625;1010
624.688;1005
624.750;1010
624.813;1003
624.875;998
624.938;1008
625.000;1018
625.063;1013
625.125;1008
625.188;1003
625.250;998
625.313;1003
625.375;996
625.438;1005
625.500;1000
625.563;1003
625.625;1008
625.688;1005
625.750;1008
625.813;1005
625.875;1003
625.938;1008
626.000;1003
626.063;1005
626.125;1008
626.188;1000
626.250;996
626.313;998
626.375;998
626.438;1005
626.500;996
626.563;998
626.625;1000
626.688;996
626.750;998
626.813;996
626.875;1000
626.938;1003
627.000;1003
627.063;998
627.125;1003
627.188;1003
627.250;1005
627.313;1000
627.375;996
627.438;1005
627.500;1003
627.563;993
627.625;1010
627.688;998
627.750;993
627.813;1005
627.875;1000
627.938;1000
628.000;1005
628.063;1003
628.125;998
628.188;1005
628.250;1005
628.313;1003
628.375;1003
628.438;998
628.500;1013
628.563;996
628.625;998
628.688;1005
628.750;1008
628.813;993
628.875;998
628.938;1003
629.000;1003
629.063;998
629.125;996
629.188;1003
629.250;1008
629.313;1008
629.375;1000
629.438;1008
629.500;1005
629.563;998
629.625;1010
629.688;996
629.750;1005
629.813;998
629.875;993
629.938;1003
630.000;1000
630.063;1008
630.125;996
630.188;1005
630.250;1003
630.313;1005
630.375;1013
630.438;1015
630.500;1018
630.563;1008
630.625;1005
630.688;1008
630.750;1000
630.813;1003
630.875;1013
630.938;1003
631.000;996
631.063;1000
631.125;1000
631.188;1000
631.250;1010
631.313;1003
631.375;998
631.438;1005
631.500;1005
631.563;996
631.625;998
631.688;1003
631.750;1003
631.813;1005
631.875;1005
631.938;998
632.000;988
632.063;1003
632.125;1000
632.188;996
632.250;996
632.313;1003
632.375;1008
632.438;1005
632.500;1003
632.563;1015
632.625;1000
632.688;996
632.750;1005
632.813;988
632.875;1010
632.938;1005
633.000;1005
633.063;996
633.125;1003
633.188;1005
633.250;1010
633.313;993
633.375;1005
633.438;1008
633.500;998
633.563;1000
633.625;1003
633.688;1000
633.750;991
633.813;1008
633.875;1008
633.938;1000
634.000;996
634.063;1000
634.125;991
634.188;996
634.250;1000
634.313;1003
634.375;1005
634.438;1000
634.500;1003
634.563;1003
634.625;1005
634.688;993
634.750;1010
634.813;998
634.875;1000
634.938;1000
635.000;996
635.063;1003
635.125;998
635.188;1005
635.250;1003
635.313;993
635.375;1008
635.438;1003
635.500;1003
635.563;996
635.625;1008
635.688;1013
635.750;1008
635.813;998
635.875;998
635.938;1003
636.000;996
636.063;1000
636.125;996
636.188;998
636.250;1005
636.313;1003
636.375;1003
636.438;1000
636.500;1010
636.563;996
636.625;1008
636.688;1008
636.750;1003
636.813;998
636.875;996
636.938;1000
637.000;1003
637.063;1005
637.125;996
637.188;1005
637.250;996
637.313;998
637.375;1008
637.438;998
637.500;1003
637.563;1003
637.625;998
637.688;1000
637.750;993
637.813;998
637.875;1000
637.938;1000
638.000;993
638.063;1008
638.125;1010
638.188;1005
638.250;1008
638.313;1003
638.375;1010
638.438;1003
638.500;1008
638.563;1005
638.625;998
638.688;1010
638.750;1000
638.813;1005
638.875;1005
638.938;1005
639.000;1000
639.063;1003
639.125;1008
639.188;1003
639.250;1003
639.313;1003
639.375;996
639.438;1000
639.500;996
639.563;996
639.625;1005
639.688;1005
639.750;996
639.813;1005
639.875;1005
639.938;1003
640.000;1000
640.063;1000
640.125;1008
640.188;998
640.250;1003
640.313;1005
640.375;1013
640.438;1005
640.500;1013
640.563;1000
640.625;1000
640.688;1000
640.750;1008
640.813;996
640.875;1005
640.938;1005
641.000;1000
641.063;1008
641.125;1005
641.188;1008
641.250;996
641.313;1010
641.375;1008
641.438;1013
641.500;1003
641.563;1008
641.625;1005
641.688;993
641.750;1003
641.813;1000
641.875;1000
641.938;1005
642.000;1000
642.063;1000
642.125;1008
642.188;1003
642.250;1005
642.313;1003
642.375;1000
642.438;1000
642.500;991
642.563;1008
642.625;1005
642.688;1013
642.750;1015
642.813;1015
642.875;1005
642.938;993
643.000;998
643.063;996
643.125;996
643.188;1005
643.250;998
643.313;1008
643.375;1010
643.438;1005
643.500;1003
643.563;1003
643.625;993
643.688;1000
643.750;1005
643.813;1003
643.875;1010
643.938;1000
644.000;1003
644.063;1003
644.125;1000
644.188;1003
644.250;1010
644.313;996
644.375;1000
644.438;996
644.500;1000
644.563;996
644.625;998
644.688;998
644.750;998
644.813;1003
644.875;1000
644.938;1003
645.000;1000
645.063;998
645.125;996
645.188;1003
645.250;1000
645.313;996
645.375;1000
645.438;1003
645.500;1010
645.563;1000
645.625;996
645.688;1000
645.750;1008
645.813;1000
645.875;1008
645.938;1005
646.000;1005
646.063;998
646.125;1008
646.188;1000
646.250;1000
646.313;1005
646.375;1003
646.438;1003
646.500;1005
646.563;998
646.625;1000
646.688;998
646.750;998
646.813;1005
646.875;1003
646.938;998
647.000;1005
647.063;1005
647.125;1005
647.188;1003
647.250;1005
647.313;1005
647.375;1005
647.438;1008
647.500;998
647.563;996
647.625;1003
647.688;1008
647.750;993
647.813;1008
647.875;998
647.938;1003
648.000;1010
648.063;1000
648.125;1000
648.188;1008
648.250;998
648.313;998
648.375;1008
648.438;1003
648.500;1000
648.563;998
648.625;1003
648.688;1010
648.750;1008
648.813;1005
648.875;1003
648.938;1010
649.000;1000
649.063;998
649.125;998
649.188;1005
649.250;1005
649.313;998
649.375;1008
649.438;1005
649.500;1005
649.563;996
649.625;1010
649.688;1005
649.750;1015
649.813;1000
649.875;1003
649.938;1003
650.000;1013
650.063;1003
650.125;1005
650.188;1005
650.250;1005
650.313;998
650.375;1000
650.438;998
650.500;1000
650.563;1000
650.625;1003
650.688;1005
650.750;1005
650.813;1000
650.875;1005
650.938;1000
651.000;1010
651.063;1003
651.125;1008
651.188;998
651.250;1003
651.313;1005
651.375;1008
651.438;1003
651.500;991
651.563;1000
651.625;1008
651.688;1005
651.750;1008
651.813;1008
651.875;1005
651.938;1000
652.000;1005
652.063;1005
652.125;1000
652.188;998
652.250;1008
652.313;1003
652.375;1010
652.438;1008
652.500;1010
652.563;1010
652.625;1018
652.688;1010
652.750;1018
652.813;1010
652.875;1003
652.938;1003
653.000;1003
653.063;1010
653.125;1003
653.188;1005
653.250;1000
653.313;1013
653.375;1013
653.438;1003
653.500;1005
653.563;1008
653.625;1005
653.688;1000
653.750;1003
653.813;1003
653.875;1013
653.938;1008
654.000;998
654.063;1005
654.125;991
654.188;1003
654.250;1000
654.313;998
654.375;998
654.438;1005
654.500;1008
654.563;998
654.625;996
654.688;1008
654.750;1003
654.813;1000
654.875;1003
654.938;1000
655.000;1010
655.063;1013
655.125;991
655.188;1010
655.250;1005
655.313;998
655.375;1003
655.438;1005
655.500;1000
655.563;1003
655.625;998
655.688;1003
655.750;1015
655.813;1010
655.875;1003
655.938;1005
656.000;1008
656.063;1010
656.125;1005
656.188;1003
656.250;1008
656.313;998
656.375;1000
656.438;998
656.500;1008
656.563;1008
656.625;1005
656.688;1015
656.750;1000
656.813;1005
656.875;998
656.938;1005
657.000;1000
657.063;1000
657.125;1005
657.188;996
657.250;1000
657.313;1000
657.375;1008
657.438;1003
657.500;1005
657.563;1010
657.625;998
657.688;1005
657.750;1000
657.813;998
657.875;1008
657.938;998
658.000;1005
658.063;1000
658.125;1005
658.188;998
658.250;998
658.313;996
658.375;1005
658.438;1005
658.500;1000
658.563;998
658.625;1005
658.688;1008
658.750;998
658.813;1008
658.875;1000
658.938;1000
659.000;1013
659.063;1010
659.125;1003
659.188;1008
659.250;1003
659.313;1000
659.375;1010
659.438;1010
659.500;1003
659.563;1000
659.625;1005
659.688;1000
659.750;1000
659.813;998
659.875;996
659.938;1013
660.000;1000
660.063;1005
660.125;1013
660.188;1008
660.250;1005
660.313;1000
660.375;998
660.438;1000
660.500;1003
660.563;1005
660.625;1003
660.688;1008
660.750;1003
660.813;1008
660.875;1008
660.938;1003
661.000;1015
661.063;1000
661.125;996
661.188;1000
661.250;996
661.313;1005
661.375;1003
661.438;996
661.500;1005
661.563;1000
661.625;1010
661.688;1005
661.750;1003
661.813;1005
661.875;996
661.938;1003
662.000;1005
662.063;1003
662.125;1003
662.188;991
662.250;1000
662.313;1005
662.375;1003
662.438;993
662.500;1003
662.563;1005
662.625;1000
662.688;1005
662.750;1008
662.813;1010
662.875;1005
662.938;1005
663.000;1010
663.063;1000
663.125;1003
663.188;1000
663.250;1000
663.313;1000
663.375;1005
663.438;1005
663.500;1010
663.563;1013
663.625;996
663.688;1008
663.750;1003
663.813;1000
663.875;998
663.938;1003
664.000;1003
664.063;1008
664.125;1005
664.188;1003
664.250;1005
664.313;1003
664.375;1000
664.438;1000
664.500;1008
664.563;1003
664.625;1003
664.688;1010
664.750;1003
664.813;1000
664.875;1008
664.938;1013
665.000;1013
665.063;1000
665.125;1005
665.188;1010
665.250;996
665.313;1003
665.375;1003
665.438;1003
665.500;1005
665.563;1000
665.625;998
665.688;1005
665.750;996
665.813;1003
665.875;1000
665.938;1003
666.000;998
666.063;1005
666.125;1010
666.188;1005
666.250;1013
666.313;1008
666.375;1010
666.438;1005
666.500;1005
666.563;998
666.625;1005
666.688;1008
666.750;1013
666.813;1003
666.875;1005
666.938;1003
667.000;1008
667.063;998
667.125;1008
667.188;1008
667.250;1000
667.313;998
667.375;1003
667.438;1005
667.500;1005
667.563;998
667.625;1000
667.688;1000
667.750;1005
667.813;1003
667.875;1003
667.938;996
668.000;998
668.063;1013
668.125;1000
668.188;1000
668.250;1013
668.313;1000
668.375;1010
668.438;1000
668.500;1005
668.563;996
668.625;998
668.688;991
668.750;1010
668.813;1000
668.875;1010
668.938;1000
669.000;998
669.063;1005
669.125;1005
669.188;998
669.250;1003
669.313;1000
669.375;996
669.438;1000
669.500;1010
669.563;1013
669.625;1000
669.688;1000
669.750;1010
669.813;1008
669.875;1005
669.938;998
670.000;998
670.063;1005
670.125;1000
670.188;1005
670.250;1003
670.313;993
670.375;1005
670.438;1003
670.500;1005
670.563;1000
670.625;1005
670.688;1005
670.750;1005
670.813;1010
670.875;1005
670.938;1005
671.000;1000
671.063;1008
671.125;1013
671.188;1003
671.250;1005
671.313;998
671.375;1005
671.438;1010
671.500;1000
671.563;1008
671.625;1008
671.688;1000
671.750;1005
671.813;1005
671.875;998
671.938;1010
672.000;1008
672.063;1008
672.125;1008
672.188;1000
672.250;1000
672.313;1000
672.375;1005
672.438;1013
672.500;1003
672.563;1005
672.625;1005
672.688;1003
672.750;1005
672.813;1000
672.875;1010
672.938;1000
673.000;998
673.063;1008
673.125;1003
673.188;1005
673.250;1008
673.313;996
673.375;1008
673.438;1003
673.500;1005
673.563;1010
673.625;998
673.688;1000
673.750;1008
673.813;1000
673.875;1003
673.938;1003
674.000;1013
674.063;1010
674.125;1000
674.188;1010
674.250;1003
674.313;1003
674.375;1005
674.438;1008
674.500;1003
674.563;1005
674.625;998
674.688;998
674.750;998
674.813;998
674.875;1008
674.938;998
675.000;1013
675.063;1015
675.125;1005
675.188;1005
675.250;1010
675.313;1005
675.375;1010
675.438;998
675.500;1000
675.563;1008
675.625;1008
675.688;1000
675.750;1005
675.813;998
675.875;1000
675.938;1003
676.000;998
676.063;1010
676.125;1000
676.188;996
676.250;1000
676.313;1005
676.375;998
676.438;996
676.500;1003
676.563;1003
676.625;998
676.688;1008
676.750;1003
676.813;1010
676.875;998
676.938;998
677.000;998
677.063;1005
677.125;1010
677.188;1008
677.250;998
677.313;1003
677.375;1005
677.438;1005
677.500;1010
677.563;1003
677.625;998
677.688;1000
677.750;1000
677.813;1003
677.875;1005
677.938;1005
678.000;1003
678.063;1008
678.125;1008
678.188;1010
678.250;998
678.313;1008
678.375;1010
678.438;1000
678.500;1005
678.563;1000
678.625;1010
678.688;1003
678.750;1003
678.813;1008
678.875;1005
678.938;1008
679.000;1008
679.063;1005
679.125;1010
679.188;1008
679.250;1008
679.313;1010
679.375;1010
679.438;1015
679.500;1005
679.563;1000
679.625;1003
679.688;1013
679.750;1000
679.813;1000
679.875;1003
679.938;1003
680.000;1005
680.063;1005
680.125;1008
680.188;1005
680.250;1008
680.313;1008
680.375;1010
680.438;1003
680.500;1003
680.563;1003
680.625;1013
680.688;1000
680.750;1010
680.813;1000
680.875;1005
680.938;1005
681.000;1000
681.063;996
681.125;998
681.188;1008
681.250;1010
681.313;996
681.375;1008
681.438;1000
681.500;1003
681.563;998
681.625;1005
681.688;998
681.750;1003
681.813;1003
681.875;1003
681.938;1010
682.000;1003
682.063;1008
682.125;993
682.188;1003
682.250;1010
682.313;996
682.375;1003
682.438;1003
682.500;1010
682.563;1010
682.625;1005
682.688;1005
682.750;996
682.813;998
682.875;1005
682.938;1010
683.000;1010
683.063;1003
683.125;1008
683.188;1000
683.250;1008
683.313;1005
683.375;1010
683.438;1013
683.500;993
683.563;1015
683.625;1008
683.688;1003
683.750;998
683.813;1000
683.875;1008
683.938;1008
684.000;1013
684.063;1003
684.125;998
684.188;1008
684.250;996
684.313;1003
684.375;998
684.438;1003
684.500;1013
684.563;1005
684.625;1000
684.688;998
684.750;1005
684.813;1013
684.875;1008
684.938;1005
685.000;1003
685.063;1003
685.125;1003
685.188;1000
685.250;1005
685.313;1008
685.375;1010
685.438;1005
685.500;1008
685.563;1005
685.625;1003
685.688;1010
685.750;1005
685.813;998
685.875;1005
685.938;1005
686.000;1005
686.063;1003
686.125;1013
686.188;1010
686.250;1008
686.313;1003
686.375;1010
686.438;1005
686.500;1013
686.563;1008
686.625;1010
686.688;1013
686.750;1005
686.813;1005
686.875;1013
686.938;1000
687.000;1005
687.063;1008
687.125;998
687.188;1003
687.250;1010
687.313;1008
687.375;1005
687.438;1010
687.500;1005
687.563;1005
687.625;1005
687.688;1008
687.750;1008
687.813;1010
687.875;1008
687.938;1003
688.000;1003
688.063;998
688.125;1005
688.188;1003
688.250;1010
688.313;1005
688.375;1005
688.438;1003
688.500;1008
688.563;1010
688.625;1013
688.688;1003
688.750;1000
688.813;1003
688.875;1005
688.938;998
689.000;1008
689.063;1015
689.125;1008
689.188;1000
689.250;1005
689.313;998
689.375;1005
689.438;1005
689.500;1003
689.563;1005
689.625;1005
689.688;1005
689.750;1005
689.813;1008
689.875;1005
689.938;1010
690.000;998
690.063;1000
690.125;1013
690.188;1013
690.250;998
690.313;1013
690.375;998
690.438;998
690.500;1008
690.563;1013
690.625;1000
690.688;1003
690.750;1000
690.813;998
690.875;1010
690.938;1008
691.000;1015
691.063;1008
691.125;1005
691.188;1008
691.250;1008
691.313;1000
691.375;1005
691.438;1000
691.500;1013
691.563;1008
691.625;1008
691.688;1008
691.750;1008
691.813;1003
691.875;1003
691.938;1003
692.000;1005
692.063;1003
692.125;1003
692.188;1010
692.250;1000
692.313;1010
692.375;998
692.438;1010
692.500;1005
692.563;1010
692.625;1008
692.688;1010
692.750;1000
692.813;1013
692.875;1013
692.938;1010
693.000;1015
693.063;1005
693.125;1013
693.188;1013
693.250;1005
693.313;1008
693.375;1005
693.438;1015
693.500;1005
693.563;1000
693.625;1005
693.688;1000
693.750;1008
693.813;1005
693.875;1010
693.938;1005
694.000;996
694.063;1008
694.125;1015
694.188;1005
694.250;1003
694.313;1003
694.375;1005
694.438;1005
694.500;1000
694.563;1003
694.625;1005
694.688;1008
694.750;1005
694.813;1013
694.875;1003
694.938;1008
695.000;1000
695.063;1008
695.125;998
695.188;1008
695.250;1003
695.313;996
695.375;1003
695.438;1010
695.500;1005
695.563;1010
695.625;1008
695.688;998
695.750;996
695.813;1003
695.875;1005
695.938;1008
696.000;1005
696.063;1005
696.125;1010
696.188;1000
696.250;1000
696.313;1000
696.375;1013
696.438;1005
696.500;1005
696.563;1005
696.625;1003
696.688;1005
696.750;1008
696.813;1015
696.875;1010
696.938;1015
697.000;1005
697.063;1005
697.125;1003
697.188;1003
697.250;1008
697.313;1005
697.375;998
697.438;996
697.500;1005
697.563;1010
697.625;1005
697.688;1005
697.750;1008
697.813;1008
697.875;1000
697.938;1000
698.000;1000
698.063;1008
698.125;1013
698.188;1005
698.250;1015
698.313;1003
698.375;1005
698.438;1003
698.500;1008
698.563;1010
698.625;1013
698.688;1010
698.750;1015
698.813;1005
698.875;1000
698.938;1005
699.000;1015
699.063;1005
699.125;1013
699.188;1005
699.250;1013
699.313;1005
699.375;1013
699.438;1008
699.500;1010
699.563;1000
699.625;1003
699.688;1005
699.750;1005
699.813;1010
699.875;1008
699.938;1010
700.000;1008
700.063;1018
700.125;1003
700.188;1005
700.250;1010
700.313;998
700.375;1005
700.438;996
700.500;1008
700.563;1003
700.625;1015
700.688;993
700.750;1003
700.813;1015
700.875;1010
700.938;1015
701.000;1010
701.063;1008
701.125;1010
701.188;1010
701.250;1013
701.313;1008
701.375;1015
701.438;1010
701.500;1010
701.563;1010
701.625;1003
701.688;1003
701.750;1015
701.813;1013
701.875;1003
701.938;1003
702.000;1003
702.063;1005
702.125;1005
702.188;1010
702.250;1005
702.313;998
702.375;1015
702.438;1003
702.500;993
702.563;1005
702.625;1013
702.688;1005
702.750;1005
702.813;1013
702.875;1010
702.938;996
703.000;1003
703.063;1010
703.125;1000
703.188;1008
703.250;1003
703.313;1008
703.375;1013
703.438;1003
703.500;1005
703.563;998
703.625;1000
703.688;1013
703.750;1010
703.813;1010
703.875;1008
703.938;1018
704.000;1003
704.063;1010
704.125;1010
704.188;1015
704.250;1010
704.313;1008
704.375;1015
704.438;1015
704.500;1005
704.563;1005
704.625;1003
704.688;1003
704.750;1005
704.813;1005
704.875;1005
704.938;1010
705.000;998
705.063;1008
705.125;1013
705.188;1008
705.250;1013
705.313;1013
705.375;1005
705.438;1003
705.500;1008
705.563;1005
705.625;1008
705.688;1000
705.750;1005
705.813;1005
705.875;1010
705.938;1013
706.000;1005
706.063;1008
706.125;1010
706.188;1000
706.250;1008
706.313;1010
706.375;1005
706.438;1003
706.500;1000
706.563;1008
706.625;1010
706.688;1008
706.750;1005
706.813;1000
706.875;1015
706.938;1005
707.000;1008
707.063;1003
707.125;1005
707.188;1008
707.250;1003
707.313;1013
707.375;1005
707.438;1013
707.500;1015
707.563;1018
707.625;1010
707.688;1010
707.750;1015
707.813;1013
707.875;1008
707.938;1018
708.000;1015
708.063;1010
708.125;1010
708.188;1013
708.250;1005
708.313;1000
708.375;1008
708.438;1005
708.500;1010
708.563;1010
708.625;1005
708.688;998
708.750;1013
708.813;1005
708.875;1003
708.938;1005
709.000;1010
709.063;1008
709.125;1013
709.188;1008
709.250;1008
709.313;1005
709.375;1010
709.438;1008
709.500;1005
709.563;1005
709.625;1015
709.688;1003
709.750;1013
709.813;1013
709.875;1005
709.938;1008
710.000;1003
710.063;1010
710.125;1008
710.188;1010
710.250;1008
710.313;1008
710.375;1015
710.438;1018
710.500;1010
710.563;1008
710.625;1003
710.688;1008
710.750;1005
710.813;1010
710.875;1008
710.938;1010
711.000;1000
711.063;1005
711.125;1020
711.188;1005
711.250;1013
711.313;1015
711.375;998
711.438;1008
711.500;1003
711.563;1010
711.625;1010
711.688;1008
711.750;1005
711.813;1010
711.875;1018
711.938;1010
712.000;1008
712.063;1003
712.125;1008
712.188;1005
712.250;1003
712.313;1013
712.375;1003
712.438;1013
712.500;1005
712.563;996
712.625;1005
712.688;1015
712.750;1008
712.813;1000
712.875;1005
712.938;1010
713.000;1010
713.063;1008
713.125;1010
713.188;1013
713.250;1008
713.313;1008
713.375;1005
713.438;1013
713.500;1013
713.563;1003
713.625;1000
713.688;1005
713.750;1005
713.813;1015
713.875;1010
713.938;1015
714.000;1008
714.063;1008
714.125;1015
714.188;1010
714.250;1005
714.313;1005
714.375;1010
714.438;1008
714.500;1005
714.563;1018
714.625;1008
714.688;1005
714.750;1005
714.813;1003
714.875;1013
714.938;1005
715.000;1000
715.063;1008
715.125;1010
715.188;1005
715.250;1008
715.313;1000
715.375;1008
715.438;1003
715.500;996
715.563;1005
715.625;1005
715.688;1000
715.750;1015
715.813;1010
715.875;1005
715.938;1005
716.000;1013
716.063;1008
716.125;1005
716.188;1008
716.250;1003
716.313;1008
716.375;1010
716.438;1003
716.500;1010
716.563;1008
716.625;1005
716.688;1005
716.750;1013
716.813;1005
716.875;1005
716.938;1010
717.000;1013
717.063;1013
717.125;1005
717.188;1008
717.250;1003
717.313;1013
717.375;1013
717.438;1003
717.500;1005
717.563;1005
717.625;1003
717.688;998
717.750;1013
717.813;1008
717.875;1005
717.938;1008
718.000;1005
718.063;1013
718.125;1003
718.188;1010
718.250;1003
718.313;1003
718.375;1010
718.438;1008
718.500;1010
718.563;1010
718.625;1010
718.688;1005
718.750;1005
718.813;1008
718.875;1020
718.938;1013
719.000;1022
719.063;1010
719.125;1015
719.188;1005
719.250;1008
719.313;1008
719.375;1000
719.438;1005
719.500;1005
719.563;1008
719.625;1013
719.688;1008
719.750;1010
719.813;1015
719.875;1005
719.938;1010
720.000;1010
720.063;1008
720.125;1013
720.188;1003
720.250;1003
720.313;1013
720.375;1005
720.438;1013
720.500;1010
720.563;1008
720.625;1005
720.688;1015
720.750;1003
720.813;1008
720.875;1000
720.938;991
721.000;1008
721.063;1008
721.125;1010
721.188;1013
721.250;1010
721.313;1020
721.375;1018
721.438;1030
721.500;1059
721.563;1088
721.625;1103
721.688;1137
721.750;1123
721.813;1115
721.875;1081
721.938;1069
722.000;1032
722.063;1008
722.125;1013
722.188;1015
722.250;1008
722.313;1005
722.375;1000
722.438;1010
722.500;1008
722.563;1010
722.625;1008
722.688;1005
722.750;1010
722.813;1005
722.875;1005
722.938;1005
723.000;1008
723.063;1005
723.125;1015
723.188;1013
723.250;1013
723.313;1008
723.375;1008
723.438;1005
723.500;1010
723.563;1010
723.625;1000
723.688;1008
723.750;1015
723.813;1003
723.875;1005
723.938;1003
724.000;1018
724.063;1005
724.125;1003
724.188;1008
724.250;1013
724.313;1010
724.375;1008
724.438;1015
724.500;1013
724.563;1008
724.625;1008
724.688;1013
724.750;1008
724.813;1008
724.875;1000
724.938;1022
725.000;1015
725.063;1022
725.125;1027
725.188;1015
725.250;1013
725.313;1010
725.375;1010
725.438;1005
725.500;1015
725.563;1003
725.625;1005
725.688;1003
725.750;1010
725.813;1005
725.875;1015
725.938;1020
726.000;1005
726.063;1008
726.125;1000
726.188;1010
726.250;1013
726.313;1010
726.375;1003
726.438;1010
726.500;1008
726.563;1015
726.625;1003
726.688;1005
726.750;1008
726.813;1010
726.875;1015
726.938;1010
727.000;1005
727.063;1008
727.125;1010
727.188;1013
727.250;1013
727.313;1008
727.375;1005
727.438;1010
727.500;1020
727.563;1018
727.625;1010
727.688;1000
727.750;1005
727.813;1005
727.875;998
727.938;1003
728.000;1010
728.063;1005
728.125;1005
728.188;1015
728.250;1008
728.313;1000
728.375;1015
728.438;1000
728.500;1013
728.563;1015
728.625;1015
728.688;1013
728.750;1013
728.813;1010
728.875;1005
728.938;1003
729.000;1008
729.063;1005
729.125;1003
729.188;1003
729.250;1015
729.313;1010
729.375;993
729.438;1013
729.500;1005
729.563;1013
729.625;1010
729.688;1013
729.750;1005
729.813;1008
729.875;1013
729.938;1003
730.000;1010
730.063;1010
730.125;1013
730.188;1008
730.250;1008
730.313;1015
730.375;1008
730.438;1008
730.500;1015
730.563;1013
730.625;1008
730.688;1003
730.750;1008
730.813;1008
730.875;1008
730.938;1013
731.000;1008
731.063;1010
731.125;1010
731.188;1008
731.250;1013
731.313;1013
731.375;1013
731.438;1005
731.500;1008
731.563;1018
731.625;1005
731.688;1018
731.750;1013
731.813;1000
731.875;1010
731.938;1013
732.000;1003
732.063;1005
732.125;1013
732.188;1003
732.250;1018
732.313;1018
732.375;998
732.438;1020
732.500;1005
732.563;1010
732.625;1008
732.688;1010
732.750;1010
732.813;1008
732.875;1008
732.938;1008
733.000;1010
733.063;996
733.125;1005
733.188;1005
733.250;1010
733.313;1010
733.375;1005
733.438;1008
733.500;1005
733.563;1005
733.625;1010
733.688;1008
733.750;1000
733.813;1005
733.875;1008
733.938;1008
734.000;1008
734.063;1010
734.125;1008
734.188;1013
734.250;1010
734.313;1010
734.375;1003
734.438;1005
734.500;1010
734.563;1015
734.625;1015
734.688;1005
734.750;1003
734.813;1008
734.875;1010
734.938;1010
735.000;1008
735.063;1013
735.125;1013
735.188;1022
735.250;1010
735.313;1003
735.375;1003
735.438;1013
735.500;1013
735.563;1010
735.625;1013
735.688;1008
735.750;1013
735.813;1005
735.875;1005
735.938;1013
736.000;1018
736.063;1003
736.125;1020
736.188;1015
736.250;1005
736.313;998
736.375;1018
736.438;1008
736.500;998
736.563;1013
736.625;1013
736.688;1015
736.750;1010
736.813;1013
736.875;1013
736.938;1010
737.000;1010
737.063;1013
737.125;1008
737.188;1005
737.250;1005
737.313;1005
737.375;1008
737.438;1018
737.500;1010
737.563;1005
737.625;1003
737.688;1010
737.750;1010
737.813;998
737.875;1008
737.938;1010
738.000;1013
738.063;1013
738.125;1015
738.188;998
738.250;1015
738.313;1005
738.375;1018
738.438;1005
738.500;1010
738.563;1003
738.625;1008
738.688;1005
738.750;1010
738.813;1008
738.875;1008
738.938;1010
739.000;1018
739.063;1008
739.125;1013
739.188;1008
739.250;1020
739.313;1005
739.375;998
739.438;1010
739.500;1010
739.563;1013
739.625;1008
739.688;1010
739.750;1008
739.813;1008
739.875;1010
739.938;1010
740.000;1005
740.063;1015
740.125;1010
740.188;1015
740.250;1013
740.313;1015
740.375;1010
740.438;1015
740.500;1010
740.563;1010
740.625;1010
740.688;1010
740.750;1020
740.813;1010
740.875;1015
740.938;1015
741.000;1015
741.063;1022
741.125;1015
741.188;1008
741.250;1008
741.313;1010
741.375;1008
741.438;1005
741.500;1013
741.563;1015
741.625;1015
741.688;1005
741.750;1013
741.813;1013
741.875;1015
741.938;1010
742.000;1018
742.063;1020
742.125;1008
742.188;1015
742.250;1015
742.313;1013
742.375;1015
742.438;1010
742.500;1010
742.563;1013
742.625;1008
742.688;1010
742.750;1015
742.813;1013
742.875;1015
742.938;1013
743.000;1008
743.063;1018
743.125;1013
743.188;1005
743.250;1008
743.313;1005
743.375;1018
743.438;1013
743.500;1013
743.563;1013
743.625;1003
743.688;1013
743.750;1010
743.813;1020
743.875;1013
743.938;1015
744.000;1013
744.063;1008
744.125;1005
744.188;1010
744.250;1010
744.313;1013
744.375;1013
744.438;1020
744.500;1015
744.563;1000
744.625;1000
744.688;1013
744.750;1018
744.813;1010
744.875;1010
744.938;1005
745.000;1013
745.063;1010
745.125;1025
745.188;1010
745.250;1013
745.313;1005
745.375;1015
745.438;1013
745.500;1015
745.563;1008
745.625;1005
745.688;1010
745.750;1015
745.813;1010
745.875;1010
745.938;1013
746.000;1013
746.063;1008
746.125;1010
746.188;1005
746.250;1013
746.313;1010
746.375;1003
746.438;1013
746.500;1020
746.563;1013
746.625;1008
746.688;1000
746.750;1005
746.813;1003
746.875;1010
746.938;1018
747.000;1013
747.063;1008
747.125;1013
747.188;998
747.250;1010
747.313;1003
747.375;1013
747.438;1005
747.500;1013
747.563;1013
747.625;1013
747.688;1018
747.750;1013
747.813;1013
747.875;1010
747.938;1013
748.000;1010
748.063;1008
748.125;1005
748.188;1018
748.250;1010
748.313;1013
748.375;1013
748.438;1008
748.500;1010
748.563;1010
748.625;1010
748.688;1008
748.750;1015
748.813;1013
748.875;1010
748.938;1010
749.000;1013
749.063;1013
749.125;1010
749.188;1018
749.250;1013
749.313;1010
749.375;1008
749.438;1010
749.500;1013
749.563;1010
749.625;1000
749.688;1013
749.750;1015
749.813;1010
749.875;1008
749.938;1020
750.000;1020
750.063;1022
750.125;1020
750.188;1013
750.250;1015
750.313;1005
750.375;1010
750.438;1015
750.500;1005
750.563;1008
750.625;1010
750.688;1008
750.750;1008
750.813;1005
750.875;1003
750.938;1015
751.000;1020
751.063;1015
751.125;1008
751.188;1013
751.250;1003
751.313;1015
751.375;1005
751.438;1008
751.500;1020
751.563;1013
751.625;1020
751.688;1013
751.750;1008
751.813;1005
751.875;1010
751.938;1005
752.000;1013
752.063;1013
752.125;1015
752.188;1000
752.250;1013
752.313;996
752.375;1010
752.438;1005
752.500;1015
752.563;1015
752.625;1013
752.688;1010
752.750;1010
752.813;1015
752.875;1010
752.938;1013
753.000;1013
753.063;1003
753.125;1013
753.188;1008
753.250;1018
753.313;1010
753.375;1015
753.438;1010
753.500;1013
753.563;1008
753.625;1018
753.688;1022
753.750;1013
753.813;996
753.875;1018
753.938;1008
754.000;1020
754.063;1020
754.125;1015
754.188;1010
754.250;1013
754.313;1015
754.375;1005
754.438;1005
754.500;1003
754.563;1018
754.625;1003
754.688;1008
754.750;1018
754.813;1003
754.875;1015
754.938;1013
755.000;1003
755.063;1013
755.125;1010
755.188;1022
755.250;1008
755.313;1008
755.375;1022
755.438;1015
755.500;1015
755.563;1010
755.625;1018
755.688;1022
755.750;1013
755.813;1003
755.875;1022
755.938;1018
756.000;1022
756.063;1020
756.125;1022
756.188;1013
756.250;1013
756.313;1005
756.375;1003
756.438;1018
756.500;1005
756.563;1013
756.625;1005
756.688;1015
756.750;1025
756.813;1015
756.875;1003
756.938;1008
757.000;1015
757.063;1015
757.125;1013
757.188;1008
757.250;1010
757.313;1013
757.375;1015
757.438;1010
757.500;1013
757.563;1018
757.625;1003
757.688;1008
757.750;1010
757.813;1015
757.875;1008
757.938;1018
758.000;1008
758.063;1003
758.125;1010
758.188;1022
758.250;1010
758.313;1018
758.375;1010
758.438;1010
758.500;1003
758.563;1013
758.625;1015
758.688;1013
758.750;1022
758.813;1008
758.875;1018
758.938;1010
759.000;1008
759.063;1013
759.125;1000
759.188;1013
759.250;1013
759.313;1015
759.375;1008
759.438;1013
759.500;1018
759.563;1013
759.625;1015
759.688;1008
759.750;1005
759.813;1018
759.875;1008
759.938;1008
760.000;1000
760.063;1018
760.125;1025
760.188;1003
760.250;1018
760.313;1013
760.375;1010
760.438;1005
760.500;1008
760.563;1015
760.625;1010
760.688;1013
760.750;1013
760.813;1013
760.875;1015
760.938;1010
761.000;1013
761.063;1008
761.125;1013
761.188;1018
761.250;1020
761.313;1018
761.375;1015
761.438;1010
761.500;1008
761.563;1010
761.625;1008
761.688;1010
761.750;1010
761.813;1010
761.875;1015
761.938;1005
762.000;1013
762.063;1005
762.125;1008
762.188;1005
762.250;1003
762.313;1013
762.375;1018
762.438;1013
762.500;1010
762.563;1015
762.625;1013
762.688;1015
762.750;1013
762.813;1010
762.875;1013
762.938;1003
763.000;1008
763.063;1020
763.125;1013
763.188;1008
763.250;1020
763.313;1018
763.375;1008
763.438;1013
763.500;1013
763.563;1003
763.625;1013
763.688;1005
763.750;1010
763.813;1018
763.875;1018
763.938;1005
764.000;1010
764.063;1013
764.125;1010
764.188;1018
764.250;1008
764.313;1003
764.375;1013
764.438;1015
764.500;1015
764.563;1022
764.625;1013
764.688;1005
764.750;1010
764.813;1008
764.875;1010
764.938;1015
765.000;1000
765.063;1013
765.125;1010
765.188;1015
765.250;1015
765.313;1018
765.375;1013
765.438;1013
765.500;1022
765.563;1008
765.625;1020
765.688;1018
765.750;1008
765.813;1000
765.875;1022
765.938;1010
766.000;1013
766.063;1010
766.125;1018
766.188;1010
766.250;1018
766.313;1013
766.375;1008
766.438;1010
766.500;1008
766.563;1020
766.625;1005
766.688;1015
766.750;1018
766.813;1015
766.875;1013
766.938;1010
767.000;1010
767.063;1008
767.125;1010
767.188;1010
767.250;1005
767.313;1015
767.375;1010
767.438;1018
767.500;1018
767.563;1008
767.625;1015
767.688;1015
767.750;1013
767.813;1015
767.875;1015
767.938;1013
768.000;1005
768.063;1018
768.125;1020
768.188;1013
768.250;1013
768.313;1010
768.375;1020
768.438;1013
768.500;1013
768.563;1010
768.625;1018
768.688;1020
768.750;1018
768.813;1022
768.875;1015
768.938;1020
769.000;1013
769.063;1013
769.125;1008
769.188;1008
769.250;1008
769.313;1015
769.375;1015
769.438;1000
769.500;1010
769.563;1013
769.625;1015
769.688;1008
769.750;1013
769.813;1013
769.875;1018
769.938;1015
770.000;1008
770.063;1005
770.125;1010
770.188;1005
770.250;1010
770.313;1010
770.375;1015
770.438;1005
770.500;1008
770.563;1020
770.625;1015
770.688;1010
770.750;1013
770.813;1008
770.875;1010
770.938;1010
771.000;1018
771.063;1020
771.125;1020
771.188;1020
771.250;1013
771.313;1025
771.375;1005
771.438;1010
771.500;1008
771.563;1010
771.625;1020
771.688;1010
771.750;1020
771.813;1010
771.875;1013
771.938;1018
772.000;1015
772.063;1015
772.125;1010
772.188;1010
772.250;1008
772.313;1015
772.375;1005
772.438;1005
772.500;1008
772.563;1013
772.625;1008
772.688;1010
772.750;1022
772.813;1013
772.875;1013
772.938;1005
773.000;1010
773.063;1008
773.125;1013
773.188;1022
773.250;1013
773.313;1022
773.375;1013
773.438;1008
773.500;1008
773.563;1013
773.625;1018
773.688;1008
773.750;1015
773.813;1013
773.875;1010
773.938;1015
774.000;1015
774.063;1008
774.125;1013
774.188;1010
774.250;1010
774.313;1008
774.375;1015
774.438;1015
774.500;1005
774.563;1008
774.625;1013
774.688;1013
774.750;1010
774.813;1013
774.875;1003
774.938;1015
775.000;1015
775.063;1010
775.125;1015
775.188;1015
775.250;1018
775.313;1018
775.375;1025
775.438;1010
775.500;1018
775.563;1010
775.625;1013
775.688;1015
775.750;1015
775.813;1010
775.875;1010
775.938;1020
776.000;1020
776.063;1010
776.125;1003
776.188;1010
776.250;1013
776.313;1013
776.375;1010
776.438;1020
776.500;1005
776.563;1010
776.625;1015
776.688;1008
776.750;1018
776.813;1018
776.875;1010
776.938;1013
777.000;1020
777.063;1008
777.125;1005
777.188;1008
777.250;1015
777.313;1015
777.375;1005
777.438;1008
777.500;1008
777.563;1015
777.625;1005
777.688;1015
777.750;1013
777.813;1005
777.875;1013
777.938;1010
778.000;1015
778.063;1018
778.125;1015
778.188;1013
778.250;1015
778.313;1013
778.375;1018
778.438;1010
778.500;1010
778.563;1018
778.625;1013
778.688;1020
778.750;1025
778.813;1000
778.875;1013
778.938;1015
779.000;1003
779.063;1008
779.125;1020
779.188;1013
779.250;1015
779.313;1015
779.375;1013
779.438;1015
779.500;1015
779.563;1015
779.625;1015
779.688;1010
779.750;1022
779.813;1010
779.875;1005
779.938;1003
780.000;1015
780.063;1018
780.125;1013
780.188;1013
780.250;1015
780.313;1013
780.375;1018
780.438;1020
780.500;1018
780.563;1010
780.625;1018
780.688;1008
780.750;1018
780.813;1013
780.875;1015
780.938;1015
781.000;1010
781.063;1015
781.125;1018
781.188;1015
781.250;1013
781.313;1015
781.375;1018
781.438;1020
781.500;1015
781.563;1010
781.625;1008
781.688;1013
781.750;1018
781.813;1008
781.875;1015
781.938;1010
782.000;1015
782.063;1013
782.125;1018
782.188;1015
782.250;1018
782.313;1015
782.375;1022
782.438;1005
782.500;1010
782.563;1013
782.625;1013
782.688;1015
782.750;1013
782.813;1013
782.875;998
782.938;1020
783.000;1018
783.063;1008
783.125;1013
783.188;1013
783.250;1005
783.313;1018
783.375;1008
783.438;1013
783.500;1015
783.563;1013
783.625;1015
783.688;1013
783.750;1018
783.813;1022
783.875;1013
783.938;1015
784.000;1008
784.063;1005
784.125;1008
784.188;1018
784.250;1010
784.313;1003
784.375;1003
784.438;1008
784.500;1008
784.563;1022
784.625;1013
784.688;1005
784.750;1013
784.813;1013
784.875;1010
784.938;1018
785.000;1020
785.063;1013
785.125;1003
785.188;1013
785.250;1013
785.313;1015
785.375;1020
785.438;1015
785.500;1010
785.563;1013
785.625;1003
785.688;1015
785.750;1032
785.813;1013
785.875;1020
785.938;1018
786.000;1010
786.063;1013
786.125;1008
786.188;1013
786.250;1008
786.313;1013
786.375;1013
786.438;1018
786.500;1010
786.563;1013
786.625;1020
786.688;1008
786.750;1005
786.813;1015
786.875;1020
786.938;1020
787.000;1013
787.063;1010
787.125;1018
787.188;1022
787.250;1015
787.313;1010
787.375;1005
787.438;1010
787.500;1013
787.563;1022
787.625;1018
787.688;1010
787.750;1018
787.813;1018
787.875;1015
787.938;1025
788.000;1020
788.063;1015
788.125;1010
788.188;1018
788.250;1018
788.313;1013
788.375;1008
788.438;1018
788.500;1018
788.563;1013
788.625;1013
788.688;1008
788.750;1022
788.813;1015
788.875;1008
788.938;1020
789.000;1015
789.063;1013
789.125;1013
789.188;1013
789.250;1013
789.313;1020
789.375;1013
789.438;1018
789.500;1013
789.563;1013
789.625;1020
789.688;1013
789.750;1015
789.813;1020
789.875;1013
789.938;1013
790.000;1020
790.063;1018
790.125;1010
790.188;1022
790.250;1018
790.313;1010
790.375;1015
790.438;1018
790.500;1018
790.563;1013
790.625;1018
790.688;1018
790.750;1015
790.813;1005
790.875;1018
790.938;1018
791.000;1013
791.063;1010
791.125;1013
791.188;1018
791.250;1022
791.313;1008
791.375;1020
791.438;1013
791.500;1005
791.563;1018
791.625;1018
791.688;1020
791.750;1018
791.813;1015
791.875;1010
791.938;1015
792.000;1018
792.063;1025
792.125;1015
792.188;1013
792.250;1013
792.313;1013
792.375;1025
792.438;1020
792.500;1022
792.563;1015
792.625;1010
792.688;1013
792.750;1027
792.813;1018
792.875;1005
792.938;1010
793.000;1015
793.063;1015
793.125;1008
793.188;1018
793.250;1020
793.313;1015
793.375;1005
793.438;1005
793.500;1013
793.563;1013
793.625;1013
793.688;1018
793.750;1020
793.813;1015
793.875;1018
793.938;1008
794.000;1010
794.063;1018
794.125;1008
794.188;1018
794.250;1018
794.313;1020
794.375;1008
794.438;1015
794.500;1010
794.563;1013
794.625;1018
794.688;1013
794.750;1020
794.813;1013
794.875;1015
794.938;1005
795.000;1025
795.063;1018
795.125;1018
795.188;1018
795.250;1013
795.313;1013
795.375;1015
795.438;1015
795.500;1010
795.563;1018
795.625;1018
795.688;1013
795.750;1010
795.813;1020
795.875;1015
795.938;1018
796.000;1015
796.063;1013
796.125;1010
796.188;1010
796.250;1010
796.313;1003
796.375;1013
796.438;1013
796.500;1015
796.563;1018
796.625;1008
796.688;1018
796.750;1008
796.813;1005
796.875;1013
796.938;1020
797.000;1008
797.063;1010
797.125;1010
797.188;1015
797.250;1013
797.313;1018
797.375;1005
797.438;1015
797.500;1018
797.563;1018
797.625;1008
797.688;1013
797.750;1010
797.813;1022
797.875;1005
797.938;1015
798.000;1020
798.063;1015
798.125;1018
798.188;1015
798.250;1013
798.313;1022
798.375;1020
798.438;1018
798.500;1020
798.563;1022
798.625;1020
798.688;1000
798.750;1025
798.813;1022
798.875;1018
798.938;1010
799.000;1022
799.063;1005
799.125;1020
799.188;1015
799.250;1013
799.313;1015
799.375;1010
799.438;1013
799.500;1022
799.563;1018
799.625;1018
799.688;1015
799.750;1015
799.813;1013
799.875;1013
799.938;1015
800.000;1018
800.063;1015
800.125;1018
800.188;1018
800.250;1015
800.313;1013
800.375;1018
800.438;1020
800.500;1010
800.563;1015
800.625;1018
800.688;1013
800.750;1013
800.813;1015
800.875;1015
800.938;1005
801.000;1013
801.063;1015
801.125;1020
801.188;1008
801.250;1018
801.313;1013
801.375;1018
801.438;1020
801.500;1015
801.563;1018
801.625;1018
801.688;1015
801.750;1018
801.813;1018
801.875;1022
801.938;1015
802.000;1020
802.063;1018
802.125;1018
802.188;1003
802.250;1015
802.313;1022
802.375;1018
802.438;1020
802.500;1020
802.563;1018
802.625;1013
802.688;1018
802.750;1025
802.813;1015
802.875;1013
802.938;1018
803.000;1015
803.063;1013
803.125;1008
803.188;1015
803.250;1018
803.313;1018
803.375;1013
803.438;1013
803.500;1015
803.563;1027
803.625;1015
803.688;1013
803.750;1010
803.813;1015
803.875;1020
803.938;1018
804.000;1018
804.063;1025
804.125;1010
804.188;1022
804.250;1013
804.313;1022
804.375;1010
804.438;1003
804.500;1020
804.563;1015
804.625;1018
804.688;1008
804.750;1018
804.813;1015
804.875;1010
804.938;1015
805.000;1015
805.063;1015
805.125;1015
805.188;1015
805.250;1010
805.313;1015
805.375;1022
805.438;1025
805.500;1018
805.563;1018
805.625;1018
805.688;1018
805.750;1018
805.813;1018
805.875;1015
805.938;1008
806.000;1018
806.063;1022
806.125;1020
806.188;1008
806.250;1015
806.313;1018
806.375;1008
806.438;1010
806.500;1018
806.563;1022
806.625;1018
806.688;1018
806.750;1010
806.813;1022
806.875;1010
806.938;1010
807.000;1013
807.063;1018
807.125;1010
807.188;1022
807.250;1015
807.313;1025
807.375;1018
807.438;1018
807.500;1013
807.563;1015
807.625;1013
807.688;1025
807.750;1022
807.813;1020
807.875;1020
807.938;1018
808.000;1018
808.063;1003
808.125;1008
808.188;1010
808.250;1020
808.313;1010
808.375;1025
808.438;1015
808.500;1015
808.563;1020
808.625;1013
808.688;1013
808.750;1015
808.813;1013
808.875;1010
808.938;1018
809.000;1020
809.063;1008
809.125;1008
809.188;1015
809.250;1015
809.313;1022
809.375;1030
809.438;1020
809.500;1008
809.563;1010
809.625;1020
809.688;1013
809.750;1020
809.813;1018
809.875;1003
809.938;1013
810.000;1013
810.063;1020
810.125;1010
810.188;1010
810.250;1010
810.313;1018
810.375;1013
810.438;1015
810.500;1018
810.563;1027
810.625;1020
810.688;1015
810.750;1018
810.813;1018
810.875;1015
810.938;1018
811.000;1015
811.063;1015
811.125;1018
811.188;1013
811.250;1020
811.313;1022
811.375;1015
811.438;1013
811.500;1015
811.563;1015
811.625;1013
811.688;1013
811.750;1018
811.813;1015
811.875;1015
811.938;1018
812.000;1015
812.063;1020
812.125;1013
812.188;1015
812.250;1018
812.313;1015
812.375;1025
812.438;1013
812.500;1018
812.563;1018
812.625;1015
812.688;1020
812.750;1018
812.813;1010
812.875;1020
812.938;1020
813.000;1015
813.063;1025
813.125;1010
813.188;1020
813.250;1018
813.313;1015
813.375;1015
813.438;1013
813.500;1022
813.563;1010
813.625;1020
813.688;1008
813.750;1015
813.813;1020
813.875;1013
813.938;1020
814.000;1018
814.063;1013
814.125;1008
814.188;1020
814.250;1013
814.313;1008
814.375;1018
814.438;1013
814.500;1013
814.563;1015
814.625;1010
814.688;1020
814.750;1022
814.813;1015
814.875;1010
814.938;1020
815.000;1015
815.063;1010
815.125;1015
815.188;1010
815.250;1008
815.313;1020
815.375;1015
815.438;1010
815.500;1010
815.563;1010
815.625;1008
815.688;1013
815.750;1015
815.813;1015
815.875;1020
815.938;1018
816.000;1025
816.063;1018
816.125;1015
816.188;1020
816.250;1032
816.313;1018
816.375;1020
816.438;1032
816.500;1018
816.563;1010
816.625;1018
816.688;1010
816.750;1010
816.813;1010
816.875;1018
816.938;1015
817.000;1005
817.063;1013
817.125;1015
817.188;1015
817.250;1013
817.313;1018
817.375;1015
817.438;1020
817.500;1015
817.563;1018
817.625;1015
817.688;1020
817.750;1015
817.813;1015
817.875;1020
817.938;1010
818.000;1015
818.063;1008
818.125;1015
818.188;1013
818.250;1010
818.313;1015
818.375;1013
818.438;1008
818.500;1015
818.563;1018
818.625;1013
818.688;1020
818.750;1020
818.813;1013
818.875;1015
818.938;1025
819.000;1018
819.063;1018
819.125;1015
819.188;1020
819.250;1008
819.313;1013
819.375;1018
819.438;1018
819.500;1020
819.563;1018
819.625;1010
819.688;1015
819.750;1018
819.813;1010
819.875;1018
819.938;1008
820.000;1013
820.063;1005
820.125;1015
820.188;1015
820.250;1020
820.313;1018
820.375;1022
820.438;1015
820.500;1010
820.563;1015
820.625;1015
820.688;1013
820.750;1018
820.813;1013
820.875;1010
820.938;1013
821.000;1010
821.063;1000
821.125;1022
821.188;1015
821.250;1018
821.313;1013
821.375;1018
821.438;1015
821.500;1018
821.563;1018
821.625;1022
821.688;1015
821.750;1015
821.813;1010
821.875;1018
821.938;1013
822.000;1020
822.063;1020
822.125;1015
822.188;1020
822.250;1015
822.313;1018
822.375;1015
822.438;1013
822.500;1013
822.563;1020
822.625;1005
822.688;1015
822.750;1008
822.813;1022
822.875;1015
822.938;1018
823.000;1018
823.063;1025
823.125;1015
823.188;1025
823.250;1015
823.313;1027
823.375;1008
823.438;1015
823.500;1013
823.563;1020
823.625;1015
823.688;1013
823.750;1018
823.813;1020
823.875;1022
823.938;1010
824.000;1018
824.063;1022
824.125;1013
824.188;1025
824.250;1022
824.313;1013
824.375;1013
824.438;1020
824.500;1013
824.563;1015
824.625;1027
824.688;1025
824.750;1030
824.813;1025
824.875;1022
824.938;1027
825.000;1018
825.063;1015
825.125;1015
825.188;1010
825.250;1020
825.313;1022
825.375;1015
825.438;1022
825.500;1010
825.563;1013
825.625;1025
825.688;1010
825.750;1010
825.813;1025
825.875;1013
825.938;1018
826.000;1015
826.063;1018
826.125;1010
826.188;1013
826.250;1015
826.313;1013
826.375;1018
826.438;1015
826.500;1018
826.563;1008
826.625;1013
826.688;1020
826.750;1018
826.813;1013
826.875;1013
826.938;1013
827.000;1018
827.063;1015
827.125;1013
827.188;1015
827.250;1013
827.313;1020
827.375;1027
827.438;1018
827.500;1022
827.563;1015
827.625;1020
827.688;1018
827.750;1020
827.813;1015
827.875;1018
827.938;1020
828.000;1010
828.063;1022
828.125;1018
828.188;1015
828.250;1018
828.313;1018
828.375;1013
828.438;1022
828.500;1015
828.563;1015
828.625;1013
828.688;1010
828.750;1013
828.813;1013
828.875;1020
828.938;1010
829.000;1010
829.063;1015
829.125;1025
829.188;1018
829.250;1005
829.313;1020
829.375;1013
829.438;1010
829.500;1008
829.563;1022
829.625;1010
829.688;1018
829.750;1022
829.813;1018
829.875;1008
829.938;1015
830.000;1013
830.063;1020
830.125;1010
830.188;1015
830.250;1013
830.313;1020
830.375;1010
830.438;1013
830.500;1025
830.563;1025
830.625;1020
830.688;1008
830.750;1015
830.813;1015
830.875;1025
830.938;1013
831.000;1013
831.063;1018
831.125;1025
831.188;1013
831.250;1013
831.313;1005
831.375;1025
831.438;1020
831.500;1015
831.563;1013
831.625;1018
831.688;1015
831.750;1010
831.813;1015
831.875;1027
831.938;1020
832.000;1013
832.063;1020
832.125;1020
832.188;1013
832.250;1025
832.313;1008
832.375;1010
832.438;1018
832.500;1015
832.563;1018
832.625;1020
832.688;1018
832.750;1015
832.813;1010
832.875;1015
832.938;1015
833.000;1015
833.063;1015
833.125;1010
833.188;1018
833.250;1025
833.313;1025
833.375;1005
833.438;1008
833.500;1013
833.563;1010
833.625;1015
833.688;1022
833.750;1018
833.813;1015
833.875;1013
833.938;1018
834.000;1018
834.063;1020
834.125;1022
834.188;1020
834.250;1008
834.313;1010
834.375;1022
834.438;1020
834.500;1018
834.563;1015
834.625;1018
834.688;1020
834.750;1025
834.813;1015
834.875;1013
834.938;1015
835.000;1018
835.063;1010
835.125;1010
835.188;1013
835.250;1013
835.313;1018
835.375;1015
835.438;1018
835.500;1018
835.563;1013
835.625;1015
835.688;1018
835.750;1010
835.813;1013
835.875;1015
835.938;1015
836.000;1015
836.063;1008
836.125;1013
836.188;1015
836.250;1013
836.313;1022
836.375;1010
836.438;1015
836.500;1015
836.563;1018
836.625;1013
836.688;1013
836.750;1013
836.813;1013
836.875;1015
836.938;1015
837.000;1015
837.063;1015
837.125;1015
837.188;1020
837.250;1022
837.313;1013
837.375;1020
837.438;1013
837.500;1015
837.563;1015
837.625;1018
837.688;1008
837.750;1018
837.813;1018
837.875;1013
837.938;1013
838.000;1013
838.063;1013
838.125;1020
838.188;1010
838.250;1010
838.313;1015
838.375;1022
838.438;1022
838.500;1020
838.563;1008
838.625;1013
838.688;1015
838.750;1015
838.813;1018
838.875;1018
838.938;1018
839.000;1015
839.063;1010
839.125;1015
839.188;1010
839.250;1010
839.313;1008
839.375;1020
839.438;1015
839.500;1013
839.563;1015
839.625;1010
839.688;1018
839.750;1015
839.813;1022
839.875;1018
839.938;1010
840.000;1008
840.063;1018
840.125;1013
840.188;1013
840.250;1008
840.313;1013
840.375;1010
840.438;1013
840.500;1010
840.563;1015
840.625;1018
840.688;1015
840.750;1015
840.813;1013
840.875;1013
840.938;1013
841.000;1010
841.063;1005
841.125;1013
841.188;1005
841.250;1010
841.313;1020
841.375;1008
841.438;1010
841.500;1013
841.563;1013
841.625;1018
841.688;1020
841.750;1013
841.813;1010
841.875;1010
841.938;1013
842.000;1018
842.063;1008
842.125;1018
842.188;1008
842.250;1015
842.313;1013
842.375;1013
842.438;1003
842.500;1020
842.563;1015
842.625;1022
842.688;1020
842.750;1010
842.813;1018
842.875;1022
842.938;1015
843.000;1013
843.063;1008
843.125;1018
843.188;1008
843.250;1020
843.313;1010
843.375;1018
843.438;1013
843.500;1015
843.563;1010
843.625;1018
843.688;1018
843.750;1018
843.813;1020
843.875;1013
843.938;1020
844.000;1013
844.063;1015
844.125;1015
844.188;1010
844.250;1015
844.313;1008
844.375;1020
844.438;1010
844.500;1022
844.563;1010
844.625;1022
844.688;1018
844.750;1022
844.813;1018
844.875;1018
844.938;1010
845.000;1025
845.063;1013
845.125;1020
845.188;1010
845.250;1013
845.313;1015
845.375;1020
845.438;1015
845.500;1008
845.563;1015
845.625;1015
845.688;1003
845.750;1013
845.813;1008
845.875;1008
845.938;1010
846.000;1018
846.063;1022
846.125;1018
846.188;1020
846.250;1018
846.313;1013
846.375;1010
846.438;1013
846.500;1005
846.563;1018
846.625;1005
846.688;1022
846.750;1010
846.813;1025
846.875;998
846.938;1013
847.000;1013
847.063;1010
847.125;1015
847.188;1015
847.250;1018
847.313;1020
847.375;1010
847.438;1013
847.500;1015
847.563;1018
847.625;1008
847.688;1015
847.750;1010
847.813;1008
847.875;1008
847.938;1018
848.000;1013
848.063;1008
848.125;1010
848.188;1018
848.250;1010
848.313;1013
848.375;1020
848.438;1010
848.500;1008
848.563;1020
848.625;1013
848.688;1015
848.750;1018
848.813;1027
848.875;1010
848.938;1018
849.000;1020
849.063;1015
849.125;1008
849.188;1008
849.250;1010
849.313;1022
849.375;1008
849.438;1018
849.500;1008
849.563;1013
849.625;1015
849.688;1010
849.750;1018
849.813;1015
849.875;1013
849.938;1018
850.000;1018
850.063;1027
850.125;1013
850.188;1020
850.250;1013
850.313;1010
850.375;1018
850.438;1015
850.500;1010
850.563;1018
850.625;1025
850.688;1008
850.750;1018
850.813;1022
850.875;1020
850.938;1013
851.000;1013
851.063;1018
851.125;1013
851.188;1013
851.250;1015
851.313;1015
851.375;1018
851.438;1013
851.500;1010
851.563;1008
851.625;1027
851.688;1013
851.750;1018
851.813;1013
851.875;1018
851.938;1015
852.000;1018
852.063;1015
852.125;1018
852.188;1013
852.250;1018
852.313;1010
852.375;1015
852.438;1015
852.500;1015
852.563;1010
852.625;1013
852.688;1020
852.750;1015
852.813;1018
852.875;1018
852.938;1010
853.000;1015
853.063;1008
853.125;1020
853.188;1010
853.250;1008
853.313;1020
853.375;1020
853.438;1013
853.500;1010
853.563;1005
853.625;1010
853.688;1010
853.750;1008
853.813;1008
853.875;1013
853.938;1020
854.000;1018
854.063;1015
854.125;1013
854.188;1013
854.250;1005
854.313;1010
854.375;1022
854.438;1008
854.500;1010
854.563;1013
854.625;1015
854.688;1015
854.750;1013
854.813;1013
854.875;1025
854.938;1013
855.000;1015
855.063;1010
855.125;1013
855.188;1013
855.250;1015
855.313;1008
855.375;1010
855.438;1020
855.500;1010
855.563;1020
855.625;1015
855.688;1013
855.750;1015
855.813;1008
855.875;1018
855.938;1010
856.000;1010
856.063;1008
856.125;1008
856.188;1010
856.250;1022
856.313;1010
856.375;1000
856.438;1018
856.500;1010
856.563;1005
856.625;1022
856.688;1022
856.750;1022
856.813;1015
856.875;998
856.938;1018
857.000;1003
857.063;1015
857.125;1015
857.188;1018
857.250;1013
857.313;1010
857.375;1005
857.438;1005
857.500;1010
857.563;1018
857.625;1018
857.688;1008
857.750;1015
857.813;1008
857.875;1010
857.938;1013
858.000;1018
858.063;1005
858.125;1013
858.188;1018
858.250;1013
858.313;1022
858.375;1008
858.438;1015
858.500;1013
858.563;1015
858.625;1010
858.688;1015
858.750;1008
858.813;1022
858.875;1010
858.938;1018
859.000;1027
859.063;1013
859.125;1013
859.188;1015
859.250;1010
859.313;1010
859.375;1015
859.438;1018
859.500;1015
859.563;1008
859.625;1008
859.688;1003
859.750;1003
859.813;1013
859.875;1008
859.938;1020
860.000;1018
860.063;1018
860.125;1015
860.188;1008
860.250;1015
860.313;1010
860.375;1013
860.438;1010
860.500;1015
860.563;1013
860.625;1003
860.688;1015
860.750;1013
860.813;1015
860.875;1005
860.938;1015
861.000;1018
861.063;1015
861.125;1010
861.188;1010
861.250;1013
861.313;1008
861.375;1010
861.438;1013
861.500;1013
861.563;1015
861.625;1015
861.688;1008
861.750;1013
861.813;1015
861.875;1013
861.938;1010
862.000;1015
862.063;1010
862.125;1018
862.188;1008
862.250;1010
862.313;1010
862.375;1005
862.438;1018
862.500;1020
862.563;1010
862.625;1015
862.688;1013
862.750;1013
862.813;1010
862.875;1005
862.938;1005
863.000;1018
863.063;1013
863.125;1020
863.188;1013
863.250;1003
863.313;1015
863.375;1015
863.438;1010
863.500;1010
863.563;1013
863.625;1013
863.688;1018
863.750;1005
863.813;1010
863.875;998
863.938;1003
864.000;1015
864.063;1010
864.125;1013
864.188;1010
864.250;1013
864.313;1018
864.375;1015
864.438;1010
864.500;1018
864.563;1015
864.625;1010
864.688;1010
864.750;1013
864.813;1010
864.875;1010
864.938;1013
865.000;1010
865.063;1020
865.125;1015
865.188;1010
865.250;1013
865.313;1005
865.375;1008
865.438;1003
865.500;1003
865.563;1005
865.625;1008
865.688;1010
865.750;998
865.813;1010
865.875;1015
865.938;1013
866.000;1020
866.063;1015
866.125;1013
866.188;1010
866.250;1013
866.313;1018
866.375;1005
866.438;1013
866.500;1005
866.563;1008
866.625;1008
866.688;1008
866.750;1008
866.813;1015
866.875;1010
866.938;1008
867.000;1008
867.063;1000
867.125;1013
867.188;1018
867.250;1015
867.313;1003
867.375;1025
867.438;1013
867.500;1010
867.563;1013
867.625;1010
867.688;1010
867.750;1015
867.813;1005
867.875;1013
867.938;1005
868.000;1010
868.063;1005
868.125;1008
868.188;1003
868.250;1013
868.313;1008
868.375;1015
868.438;1005
868.500;1013
868.563;996
868.625;1003
868.688;998
868.750;1015
868.813;1015
868.875;1015
868.938;1013
869.000;1010
869.063;1005
869.125;1015
869.188;1008
869.250;1013
869.313;1015
869.375;1008
869.438;1008
869.500;1005
869.563;1008
869.625;1013
869.688;1005
869.750;1018
869.813;1013
869.875;1010
869.938;1013
870.000;1008
